# Normalized Absorption: Au300K                                  
#  
# No. of glitches: --- to be done ---
#  
# No. of sec.edges:    0
#   A_nor = (abs - pre_edge - multiple_edges)/jump:#        Normalized absorption used for EXAFS estraction
#   A_0   = (abs - pre_edge)/jump#        Absorption - PreEdge only
#   SPL_nor = (SPL )/jump#        splines used to fit A_nor
#   SPL_ME_nor = (SPL + multiple_edges)/jump#        splines fitting A_0
#  1_E   2_A_nor   3_A_0   4_SPL_nor   5_SPL_ME_nor
  11650.268  0.291002E-02  0.291002E-02   0.00000       0.00000     
  11660.297  0.258543E-02  0.258543E-02   0.00000       0.00000     
  11670.395  0.197018E-02  0.197018E-02   0.00000       0.00000     
  11680.492  0.133803E-02  0.133803E-02   0.00000       0.00000     
  11690.622  0.946560E-03  0.946560E-03   0.00000       0.00000     
  11700.745  0.542198E-03  0.542198E-03   0.00000       0.00000     
  11710.879  0.132748E-03  0.132748E-03   0.00000       0.00000     
  11721.002 -0.264169E-03 -0.264169E-03   0.00000       0.00000     
  11731.184 -0.867426E-03 -0.867426E-03   0.00000       0.00000     
  11741.446 -0.127324E-02 -0.127324E-02   0.00000       0.00000     
  11751.590 -0.170034E-02 -0.170034E-02   0.00000       0.00000     
  11761.818 -0.188361E-02 -0.188361E-02   0.00000       0.00000     
  11772.071 -0.196384E-02 -0.196384E-02   0.00000       0.00000     
  11782.396 -0.224668E-02 -0.224668E-02   0.00000       0.00000     
  11792.748 -0.244473E-02 -0.244473E-02   0.00000       0.00000     
  11803.050 -0.269587E-02 -0.269587E-02   0.00000       0.00000     
  11813.398 -0.289583E-02 -0.289583E-02   0.00000       0.00000     
  11823.770 -0.266979E-02 -0.266979E-02   0.00000       0.00000     
  11834.098 -0.239159E-02 -0.239159E-02   0.00000       0.00000     
  11844.629 -0.178409E-02 -0.178409E-02   0.00000       0.00000     
  11855.054 -0.804487E-03 -0.804487E-03   0.00000       0.00000     
  11865.483  0.840063E-03  0.840063E-03   0.00000       0.00000     
  11875.852  0.399674E-02  0.399674E-02   0.00000       0.00000     
  11886.376  0.106237E-01  0.106237E-01   0.00000       0.00000     
  11896.778  0.266949E-01  0.266949E-01   0.00000       0.00000     
  11900.986  0.411144E-01  0.411144E-01   0.00000       0.00000     
  11901.994  0.456776E-01  0.456776E-01   0.00000       0.00000     
  11902.965  0.508736E-01  0.508736E-01   0.00000       0.00000     
  11903.960  0.573955E-01  0.573955E-01   0.00000       0.00000     
  11904.949  0.653688E-01  0.653688E-01   0.00000       0.00000     
  11906.002  0.767324E-01  0.767324E-01   0.00000       0.00000     
  11906.993  0.912578E-01  0.912578E-01   0.00000       0.00000     
  11908.036  0.113993      0.113993       0.00000       0.00000     
  11909.042  0.142665      0.142665       0.00000       0.00000     
  11910.037  0.179523      0.179523       0.00000       0.00000     
  11911.046  0.231738      0.231738       0.00000       0.00000     
  11912.040  0.301725      0.301725       0.00000       0.00000     
  11913.007  0.391129      0.391129       0.00000       0.00000     
  11914.000  0.487244      0.487244       0.00000       0.00000     
  11915.043  0.589018      0.589018       0.00000       0.00000     
  11916.097  0.671589      0.671589       0.00000       0.00000     
  11917.117  0.728259      0.728259       0.00000       0.00000     
  11918.101  0.760374      0.760374       0.00000       0.00000     
  11919.161  0.774396      0.774396       0.00000       0.00000     
  11920.137  0.777647      0.777647       1.14718       1.14718     
  11921.191  0.781867      0.781867       1.12840       1.12840     
  11922.196  0.791674      0.791674       1.11857       1.11857     
  11923.195  0.806351      0.806351       1.11105       1.11105     
  11924.180  0.823989      0.823989       1.10484       1.10484     
  11925.213  0.843606      0.843606       1.09919       1.09919     
  11926.237  0.859256      0.859256       1.09421       1.09421     
  11927.251  0.871095      0.871095       1.08973       1.08973     
  11928.229  0.879395      0.879395       1.08577       1.08577     
  11929.276  0.885312      0.885312       1.08184       1.08184     
  11930.279  0.889499      0.889499       1.07833       1.07833     
  11931.290  0.894815      0.894815       1.07501       1.07501     
  11932.270  0.902721      0.902721       1.07198       1.07198     
  11933.267  0.911811      0.911811       1.06906       1.06906     
  11934.260  0.919480      0.919480       1.06629       1.06629     
  11935.318  0.930190      0.930190       1.06349       1.06349     
  11936.369  0.949767      0.949767       1.06084       1.06084     
  11937.397  0.978570      0.978570       1.05837       1.05837     
  11938.460   1.01101       1.01101       1.05592       1.05592     
  11939.445   1.03852       1.03852       1.05374       1.05374     
  11940.483   1.05605       1.05605       1.05154       1.05154     
  11941.490   1.06095       1.06095       1.04948       1.04948     
  11942.530   1.05105       1.05105       1.04744       1.04744     
  11943.548   1.03215       1.03215       1.04551       1.04551     
  11944.547   1.00860       1.00860       1.04368       1.04368     
  11945.593  0.990194      0.990194       1.04183       1.04183     
  11946.605  0.980999      0.980999       1.04010       1.04010     
  11947.646  0.977198      0.977198       1.03838       1.03838     
  11948.727  0.974545      0.974545       1.03666       1.03666     
  11949.787  0.970531      0.970531       1.03502       1.03502     
  11950.836  0.965757      0.965757       1.03345       1.03345     
  11951.863  0.962205      0.962205       1.03196       1.03196     
  11952.947  0.960996      0.960996       1.03044       1.03044     
  11953.972  0.963320      0.963320       1.02905       1.02905     
  11955.025  0.969998      0.969998       1.02766       1.02766     
  11956.036  0.979873      0.979873       1.02636       1.02636     
  11957.036  0.992513      0.992513       1.02511       1.02511     
  11958.099   1.00845       1.00845       1.02383       1.02383     
  11959.131   1.02253       1.02253       1.02261       1.02261     
  11960.161   1.03495       1.03495       1.02144       1.02144     
  11961.199   1.04576       1.04576       1.02028       1.02028     
  11962.291   1.05417       1.05417       1.01910       1.01910     
  11963.353   1.05864       1.05864       1.01799       1.01799     
  11964.358   1.05922       1.05922       1.01697       1.01697     
  11965.419   1.05701       1.05701       1.01592       1.01592     
  11966.424   1.05208       1.05208       1.01495       1.01495     
  11967.424   1.04554       1.04554       1.01401       1.01401     
  11968.425   1.03889       1.03889       1.01309       1.01309     
  11969.429   1.03186       1.03186       1.01220       1.01220     
  11970.492   1.02496       1.02496       1.01128       1.01128     
  11971.511   1.01951       1.01951       1.01042       1.01042     
  11972.508   1.01480       1.01480       1.00961       1.00961     
  11973.522   1.01089       1.01089       1.00880       1.00880     
  11974.568   1.00715       1.00715       1.00798       1.00798     
  11975.571   1.00459       1.00459       1.00723       1.00723     
  11976.629   1.00223       1.00223       1.00645       1.00645     
  11977.642  0.999994      0.999994       1.00573       1.00573     
  11978.700  0.997330      0.997330       1.00499       1.00499     
  11979.753  0.993442      0.993442       1.00428       1.00428     
  11980.786  0.988588      0.988588       1.00360       1.00360     
  11981.785  0.983655      0.983655       1.00297       1.00297     
  11982.852  0.977514      0.977514       1.00231       1.00231     
  11983.864  0.973035      0.973035       1.00170       1.00170     
  11984.925  0.970613      0.970613       1.00108       1.00108     
  11985.935  0.969514      0.969514       1.00050       1.00050     
  11986.981  0.969324      0.969324      0.999926      0.999926     
  11988.049  0.969938      0.969938      0.999356      0.999356     
  11989.074  0.971268      0.971268      0.998824      0.998824     
  11990.106  0.972657      0.972657      0.998305      0.998305     
  11991.145  0.974517      0.974517      0.997798      0.997798     
  11992.155  0.977564      0.977564      0.997321      0.997321     
  11993.193  0.980864      0.980864      0.996845      0.996845     
  11994.231  0.985353      0.985353      0.996385      0.996385     
  11995.251  0.991152      0.991152      0.995947      0.995947     
  11996.316  0.997244      0.997244      0.995505      0.995505     
  11997.379   1.00258       1.00258      0.995078      0.995078     
  11998.423   1.00741       1.00741      0.994674      0.994674     
  11999.520   1.01131       1.01131      0.994264      0.994264     
  12002.016   1.01666       1.01666      0.993388      0.993388     
  12004.035   1.01736       1.01736      0.992735      0.992735     
  12006.029   1.01511       1.01511      0.992137      0.992137     
  12008.055   1.01064       1.01064      0.991576      0.991576     
  12010.112   1.00617       1.00617      0.991053      0.991053     
  12012.189   1.00270       1.00270      0.990572      0.990572     
  12014.278   1.00026       1.00026      0.990133      0.990133     
  12016.363  0.999063      0.999063      0.989741      0.989741     
  12018.449  0.998602      0.998602      0.989391      0.989391     
  12020.534  0.998883      0.998883      0.989083      0.989083     
  12022.621  0.999043      0.999043      0.988817      0.988817     
  12024.722  0.998741      0.998741      0.988589      0.988589     
  12026.793  0.997715      0.997715      0.988403      0.988403     
  12028.843  0.995669      0.995669      0.988256      0.988256     
  12030.864  0.992376      0.992376      0.988147      0.988147     
  12032.875  0.988349      0.988349      0.988073      0.988073     
  12034.923  0.983808      0.983808      0.988031      0.988031     
  12036.947  0.980337      0.980337      0.988023      0.988023     
  12039.028  0.977668      0.977668      0.988049      0.988049     
  12041.134  0.975637      0.975637      0.988109      0.988109     
  12043.150  0.974702      0.974702      0.988198      0.988198     
  12045.207  0.975124      0.975124      0.988320      0.988320     
  12047.240  0.977172      0.977172      0.988471      0.988471     
  12049.301  0.979882      0.979882      0.988654      0.988654     
  12051.430  0.982954      0.982954      0.988875      0.988875     
  12053.503  0.985520      0.985520      0.989120      0.989120     
  12055.574  0.988093      0.988093      0.989393      0.989393     
  12057.575  0.990401      0.990401      0.989684      0.989684     
  12059.676  0.992712      0.992712      0.989978      0.989978     
  12061.751  0.994216      0.994216      0.990241      0.990241     
  12063.814  0.995446      0.995446      0.990477      0.990477     
  12065.877  0.996466      0.996466      0.990689      0.990689     
  12067.957  0.997495      0.997495      0.990878      0.990878     
  12070.045  0.998071      0.998071      0.991044      0.991044     
  12072.168  0.997692      0.997692      0.991189      0.991189     
  12074.208  0.997630      0.997630      0.991308      0.991308     
  12076.313  0.997422      0.997422      0.991410      0.991410     
  12078.456  0.997656      0.997656      0.991493      0.991493     
  12080.537  0.998170      0.998170      0.991554      0.991554     
  12082.633  0.999110      0.999110      0.991596      0.991596     
  12084.744  0.999999      0.999999      0.991621      0.991621     
  12086.799   1.00037       1.00037      0.991629      0.991629     
  12088.905   1.00005       1.00005      0.991620      0.991620     
  12091.015  0.998993      0.998993      0.991595      0.991595     
  12093.101  0.996861      0.996861      0.991555      0.991555     
  12095.178  0.993604      0.993604      0.991501      0.991501     
  12097.280  0.988932      0.988932      0.991432      0.991432     
  12099.392  0.985089      0.985089      0.991349      0.991349     
  12101.522  0.982267      0.982267      0.991252      0.991252     
  12103.642  0.980529      0.980529      0.991143      0.991143     
  12105.757  0.979483      0.979483      0.991023      0.991023     
  12107.874  0.978569      0.978569      0.990890      0.990890     
  12109.936  0.977514      0.977514      0.990751      0.990751     
  12112.046  0.977348      0.977348      0.990597      0.990597     
  12114.170  0.977278      0.977278      0.990433      0.990433     
  12116.337  0.977524      0.977524      0.990255      0.990255     
  12118.396  0.978055      0.978055      0.990077      0.990077     
  12120.534  0.978895      0.978895      0.989884      0.989884     
  12122.611  0.980054      0.980054      0.989688      0.989688     
  12124.719  0.981932      0.981932      0.989481      0.989481     
  12126.788  0.984032      0.984032      0.989271      0.989271     
  12128.969  0.986174      0.986174      0.989042      0.989042     
  12131.058  0.988599      0.988599      0.988816      0.988816     
  12133.157  0.991283      0.991283      0.988582      0.988582     
  12135.283  0.994254      0.994254      0.988340      0.988340     
  12137.396  0.997052      0.997052      0.988093      0.988093     
  12139.465  0.999126      0.999126      0.987846      0.987846     
  12141.647   1.00073       1.00073      0.987580      0.987580     
  12143.719   1.00152       1.00152      0.987323      0.987323     
  12145.780   1.00162       1.00162      0.987063      0.987063     
  12147.879   1.00105       1.00105      0.986795      0.986795     
  12149.965  0.999282      0.999282      0.986524      0.986524     
  12152.051  0.997373      0.997373      0.986249      0.986249     
  12154.148  0.995180      0.995180      0.985970      0.985970     
  12156.288  0.992850      0.992850      0.985682      0.985682     
  12158.387  0.990014      0.990014      0.985397      0.985397     
  12160.440  0.986655      0.986655      0.985116      0.985116     
  12162.559  0.982742      0.982742      0.984823      0.984823     
  12164.736  0.979994      0.979994      0.984520      0.984520     
  12166.911  0.977516      0.977516      0.984215      0.984215     
  12169.049  0.976063      0.976063      0.983914      0.983914     
  12171.224  0.975157      0.975157      0.983607      0.983607     
  12173.330  0.974790      0.974790      0.983307      0.983307     
  12175.457  0.975000      0.975000      0.983004      0.983004     
  12177.561  0.975535      0.975535      0.982704      0.982704     
  12179.701  0.976309      0.976309      0.982398      0.982398     
  12181.878  0.976895      0.976895      0.982086      0.982086     
  12183.956  0.977174      0.977174      0.981788      0.981788     
  12186.023  0.976964      0.976964      0.981492      0.981492     
  12188.127  0.976255      0.976255      0.981191      0.981191     
  12190.216  0.975550      0.975550      0.980892      0.980892     
  12192.324  0.975258      0.975258      0.980591      0.980591     
  12194.510  0.975041      0.975041      0.980280      0.980280     
  12196.596  0.975545      0.975545      0.979984      0.979984     
  12198.647  0.976386      0.976386      0.979693      0.979693     
  12200.748  0.977593      0.977593      0.979397      0.979397     
  12202.894  0.979005      0.979005      0.979096      0.979096     
  12205.004  0.980452      0.980452      0.978802      0.978802     
  12207.122  0.981649      0.981649      0.978508      0.978508     
  12209.249  0.983101      0.983101      0.978215      0.978215     
  12211.369  0.984411      0.984411      0.977925      0.977925     
  12213.554  0.985484      0.985484      0.977628      0.977628     
  12215.701  0.986337      0.986337      0.977339      0.977339     
  12217.805  0.986891      0.986891      0.977057      0.977057     
  12219.928  0.987003      0.987003      0.976776      0.976776     
  12222.061  0.986672      0.986672      0.976496      0.976496     
  12224.168  0.985623      0.985623      0.976222      0.976222     
  12226.275  0.984166      0.984166      0.975951      0.975951     
  12228.399  0.981892      0.981892      0.975681      0.975681     
  12230.538  0.979962      0.979962      0.975411      0.975411     
  12232.596  0.977810      0.977810      0.975151      0.975151     
  12234.810  0.976045      0.976045      0.974870      0.974870     
  12236.963  0.974012      0.974012      0.974598      0.974598     
  12239.094  0.972229      0.972229      0.974327      0.974327     
  12241.255  0.970743      0.970743      0.974053      0.974053     
  12243.410  0.969886      0.969886      0.973779      0.973779     
  12245.497  0.969228      0.969228      0.973513      0.973513     
  12247.637  0.968908      0.968908      0.973240      0.973240     
  12249.806  0.968713      0.968713      0.972963      0.972963     
  12251.914  0.968633      0.968633      0.972694      0.972694     
  12254.047  0.968254      0.968254      0.972421      0.972421     
  12256.169  0.968003      0.968003      0.972150      0.972150     
  12258.292  0.968156      0.968156      0.971878      0.971878     
  12260.525  0.968206      0.968206      0.971592      0.971592     
  12262.689  0.968113      0.968113      0.971314      0.971314     
  12264.821  0.967958      0.967958      0.971040      0.971040     
  12266.972  0.967429      0.967429      0.970764      0.970764     
  12269.107  0.966848      0.966848      0.970489      0.970489     
  12271.304  0.966682      0.966682      0.970206      0.970206     
  12273.475  0.966399      0.966399      0.969926      0.969926     
  12275.655  0.966581      0.966581      0.969645      0.969645     
  12277.822  0.966638      0.966638      0.969365      0.969365     
  12280.013  0.966827      0.966827      0.969081      0.969081     
  12282.135  0.967415      0.967415      0.968807      0.968807     
  12284.288  0.968205      0.968205      0.968528      0.968528     
  12286.499  0.968782      0.968782      0.968241      0.968241     
  12288.716  0.969314      0.969314      0.967954      0.967954     
  12290.810  0.969790      0.969790      0.967682      0.967682     
  12292.962  0.969948      0.969948      0.967402      0.967402     
  12295.070  0.970273      0.970273      0.967128      0.967128     
  12297.304  0.970444      0.970444      0.966838      0.966838     
  12299.467  0.970537      0.970537      0.966556      0.966556     
  12301.671  0.970904      0.970904      0.966269      0.966269     
  12303.868  0.970789      0.970789      0.965982      0.965982     
  12306.021  0.970687      0.970687      0.965701      0.965701     
  12308.165  0.970309      0.970309      0.965421      0.965421     
  12310.312  0.969900      0.969900      0.965140      0.965140     
  12312.544  0.969408      0.969408      0.964848      0.964848     
  12314.709  0.968844      0.968844      0.964565      0.964565     
  12316.899  0.967712      0.967712      0.964278      0.964278     
  12319.100  0.966256      0.966256      0.963990      0.963990     
  12321.359  0.964782      0.964782      0.963693      0.963693     
  12323.528  0.963402      0.963402      0.963409      0.963409     
  12325.654  0.962168      0.962168      0.963129      0.963129     
  12327.870  0.960966      0.960966      0.962838      0.962838     
  12330.085  0.959847      0.959847      0.962547      0.962547     
  12332.268  0.958471      0.958471      0.962259      0.962259     
  12334.369  0.957576      0.957576      0.961983      0.961983     
  12336.528  0.957105      0.957105      0.961698      0.961698     
  12338.693  0.956731      0.956731      0.961413      0.961413     
