# Sample Au300K                                  
# R window limits:    1.200        3.500    
# Weight:         2
# R shell:        1.970
# K points:       440
# 
#   K        k*chi(k)      k^n*chi(k)    Amplitude    Amp*R^2,     Phase         Phase+2kr
   3.52797  0.449577       1.58609      0.473009       1.8357      -12.013       1.8869     
   3.56502  0.324639       1.15734      0.365570       1.4187      -11.998       2.0485     
   3.60180  0.237877      0.856786      0.296433       1.1504      -11.981       2.2102     
   3.64030  0.170280      0.619869      0.246850      0.95800      -11.962       2.3804     
   3.67686  0.120080      0.441517      0.213037      0.82677      -11.944       2.5428     
   3.71228  0.803865E-01  0.298417      0.188373      0.73106      -11.926       2.7007     
   3.74795  0.469503E-01  0.175967      0.169113      0.65631      -11.907       2.8603     
   3.78441  0.180482E-01  0.683016E-01  0.153595      0.59609      -11.887       3.0238     
   3.81901 -0.535542E-02 -0.204524E-01  0.141766      0.55018      -11.868       3.1794     
   3.85518 -0.262533E-01 -0.101211      0.131703      0.51113      -11.847       3.3423     
   3.88953 -0.431230E-01 -0.167728      0.123854      0.48067      -11.828       3.4972     
   3.92506 -0.578034E-01 -0.226882      0.117134      0.45459      -11.807       3.6577     
   3.96012 -0.697262E-01 -0.276124      0.111642      0.43327      -11.787       3.8161     
   3.99420 -0.790163E-01 -0.315607      0.107204      0.41605      -11.767       3.9703     
   4.02688 -0.858904E-01 -0.345870      0.103656      0.40228      -11.748       4.1182     
   4.06152 -0.910864E-01 -0.369949      0.100551      0.39023      -11.727       4.2750     
   4.09408 -0.940754E-01 -0.385152      0.981724E-01  0.38100      -11.708       4.4225     
   4.12795 -0.953000E-01 -0.393393      0.961956E-01  0.37333      -11.688       4.5758     
   4.15991 -0.947509E-01 -0.394155      0.947540E-01  0.36773      -11.670       4.7205     
   4.19280 -0.925173E-01 -0.387907      0.936686E-01  0.36352      -11.650       4.8693     
   4.22608 -0.885989E-01 -0.374426      0.929584E-01  0.36076      -11.631       5.0199     
   4.25778 -0.833798E-01 -0.355012      0.926307E-01  0.35949      -11.613       5.1631     
   4.28948 -0.767723E-01 -0.329313      0.926359E-01  0.35951      -11.594       5.3063     
   4.32114 -0.688597E-01 -0.297552      0.929721E-01  0.36082      -11.576       5.4491     
   4.35172 -0.599550E-01 -0.260907      0.934847E-01  0.36280      -11.559       5.5869     
   4.38291 -0.495464E-01 -0.217157      0.938995E-01  0.36441      -11.541       5.7273     
   4.41388 -0.381153E-01 -0.168236      0.941928E-01  0.36555      -11.524       5.8666     
   4.44410 -0.261690E-01 -0.116298      0.943657E-01  0.36622      -11.508       6.0022     
   4.47544 -0.132310E-01 -0.592146E-01  0.944281E-01  0.36647      -11.491       6.1426     
   4.50649 -0.167181E-03 -0.753401E-03  0.943740E-01  0.36626      -11.474       6.2814     
   4.53678  0.125312E-01  0.568512E-01  0.942118E-01  0.36563      -11.458       6.4166     
   4.56841  0.254331E-01  0.116189      0.939294E-01  0.36453      -11.442       6.5574     
   4.63957  0.516403E-01  0.239589      0.928865E-01  0.36048      -11.407       6.8727     
   4.69632  0.682240E-01  0.320402      0.916713E-01  0.35577      -11.381       7.1226     
   4.75171  0.796042E-01  0.378256      0.901819E-01  0.34999      -11.357       7.3648     
   4.80734  0.857104E-01  0.412039      0.884110E-01  0.34311      -11.335       7.6062     
   4.86316  0.863851E-01  0.420104      0.863877E-01  0.33526      -11.315       7.8462     
   4.91888  0.819504E-01  0.403105      0.841554E-01  0.32660      -11.297       8.0834     
   4.97431  0.731690E-01  0.363965      0.817620E-01  0.31731      -11.282       8.3166     
   5.02900  0.611603E-01  0.307575      0.792723E-01  0.30765      -11.271       8.5435     
   5.08315  0.470310E-01  0.239066      0.767238E-01  0.29776      -11.263       8.7649     
   5.13669  0.318931E-01  0.163825      0.741662E-01  0.28783      -11.258       8.9803     
   5.18973  0.166874E-01  0.866028E-01  0.716419E-01  0.27804      -11.258       9.1897     
   5.24259  0.210392E-02  0.110300E-01  0.691821E-01  0.26849      -11.261       9.3944     
   5.29419 -0.110005E-01 -0.582385E-01  0.668821E-01  0.25956      -11.269       9.5900     
   5.34474 -0.223864E-01 -0.119650      0.647700E-01  0.25137      -11.281       9.7777     
   5.39415 -0.319264E-01 -0.172216      0.628828E-01  0.24404      -11.296       9.9573     
   5.44286 -0.397347E-01 -0.216270      0.612308E-01  0.23763      -11.314       10.131     
   5.49200 -0.460329E-01 -0.252813      0.598080E-01  0.23211      -11.335       10.303     
   5.54014 -0.507412E-01 -0.281114      0.586800E-01  0.22773      -11.359       10.469     
   5.58921 -0.541479E-01 -0.302644      0.578228E-01  0.22440      -11.384       10.637     
   5.63845 -0.562339E-01 -0.317072      0.572734E-01  0.22227      -11.411       10.805     
   5.68518 -0.570157E-01 -0.324144      0.570439E-01  0.22138      -11.435       10.964     
   5.73247 -0.566072E-01 -0.324499      0.570967E-01  0.22159      -11.459       11.127     
   5.77882 -0.549771E-01 -0.317703      0.574149E-01  0.22282      -11.481       11.288     
   5.82543 -0.520175E-01 -0.303024      0.579822E-01  0.22502      -11.499       11.453     
   5.87320 -0.474950E-01 -0.278948      0.587965E-01  0.22818      -11.514       11.626     
   5.91934 -0.415923E-01 -0.246199      0.597799E-01  0.23200      -11.525       11.797     
   5.96507 -0.341925E-01 -0.203961      0.609175E-01  0.23641      -11.532       11.970     
   6.00893 -0.256495E-01 -0.154126      0.621352E-01  0.24114      -11.534       12.141     
   6.05463 -0.153306E-01 -0.928209E-01  0.635093E-01  0.24647      -11.533       12.323     
   6.09944 -0.398952E-02 -0.243338E-01  0.649370E-01  0.25201      -11.527       12.505     
   6.14366  0.810266E-02  0.497800E-01  0.664017E-01  0.25770      -11.517       12.689     
   6.18757  0.206105E-01  0.127529      0.678910E-01  0.26348      -11.504       12.875     
   6.23153  0.331691E-01  0.206694      0.694001E-01  0.26933      -11.488       13.065     
   6.27535  0.451785E-01  0.283511      0.709067E-01  0.27518      -11.468       13.257     
   6.31959  0.561922E-01  0.355111      0.724167E-01  0.28104      -11.445       13.455     
   6.36180  0.650994E-01  0.414150      0.738369E-01  0.28655      -11.420       13.646     
   6.40508  0.720582E-01  0.461539      0.752626E-01  0.29209      -11.392       13.844     
   6.44884  0.763572E-01  0.492416      0.766648E-01  0.29753      -11.361       14.048     
   6.49105  0.775142E-01  0.503149      0.779739E-01  0.30261      -11.329       14.246     
   6.53328  0.754827E-01  0.493150      0.792360E-01  0.30751      -11.295       14.446     
   6.57554  0.701543E-01  0.461302      0.804473E-01  0.31221      -11.259       14.649     
   6.61643  0.619132E-01  0.409645      0.815674E-01  0.31655      -11.223       14.846     
   6.65807  0.506177E-01  0.337016      0.826533E-01  0.32077      -11.184       15.049     
   6.69952  0.368323E-01  0.246759      0.836779E-01  0.32475      -11.144       15.252     
   6.74027  0.213138E-01  0.143661      0.846291E-01  0.32844      -11.103       15.453     
   6.78057  0.464648E-02  0.315058E-01  0.855149E-01  0.33187      -11.062       15.654     
   6.82113 -0.127584E-01 -0.870265E-01  0.863507E-01  0.33512      -11.019       15.856     
   6.86164 -0.300201E-01 -0.205987      0.871297E-01  0.33814      -10.975       16.060     
   6.90227 -0.464304E-01 -0.320475      0.878552E-01  0.34096      -10.930       16.265     
   6.94245 -0.610158E-01 -0.423599      0.885181E-01  0.34353      -10.885       16.468     
   6.98232 -0.731868E-01 -0.511014      0.891227E-01  0.34588      -10.839       16.671     
   7.02199 -0.824342E-01 -0.578852      0.896723E-01  0.34801      -10.792       16.874     
   7.06042 -0.882214E-01 -0.622880      0.901554E-01  0.34988      -10.747       17.071     
   7.09953 -0.905964E-01 -0.643193      0.905982E-01  0.35160      -10.700       17.273     
   7.13867 -0.892553E-01 -0.637164      0.909923E-01  0.35313      -10.652       17.474     
   7.17841 -0.840864E-01 -0.603606      0.913426E-01  0.35449      -10.603       17.680     
   7.21596 -0.758262E-01 -0.547159      0.916283E-01  0.35560      -10.556       17.875     
   7.25473 -0.641649E-01 -0.465499      0.918773E-01  0.35657      -10.507       18.076     
   7.29221 -0.502940E-01 -0.366755      0.920739E-01  0.35733      -10.460       18.272     
   7.33003 -0.342460E-01 -0.251024      0.922289E-01  0.35793      -10.411       18.469     
   7.36699 -0.171795E-01 -0.126561      0.923383E-01  0.35836      -10.364       18.662     
   7.40574  0.146458E-02  0.108463E-01  0.924090E-01  0.35863      -10.313       18.865     
   7.44265  0.192245E-01  0.143081      0.924344E-01  0.35873      -10.265       19.059     
   7.47957  0.362859E-01  0.271403      0.924193E-01  0.35867      -10.216       19.253     
   7.51678  0.520935E-01  0.391576      0.923633E-01  0.35845      -10.167       19.449     
   7.55358  0.657395E-01  0.496568      0.922680E-01  0.35808      -10.119       19.643     
   7.58944  0.766289E-01  0.581571      0.921369E-01  0.35757      -10.071       19.832     
   7.62707  0.850538E-01  0.648712      0.919593E-01  0.35689      -10.020       20.030     
   7.66264  0.898866E-01  0.688769      0.917541E-01  0.35609      -9.9725       20.218     
   7.69786  0.915038E-01  0.704383      0.915152E-01  0.35516      -9.9250       20.405     
   7.73355  0.898739E-01  0.695044      0.912374E-01  0.35408      -9.8767       20.593     
   7.76887  0.850920E-01  0.661069      0.909275E-01  0.35288      -9.8288       20.781     
   7.80404  0.773820E-01  0.603892      0.905846E-01  0.35155      -9.7809       20.967     
   7.83921  0.670186E-01  0.525373      0.902081E-01  0.35009      -9.7328       21.154     
   7.87495  0.541716E-01  0.426599      0.897916E-01  0.34847      -9.6838       21.344     
   7.90986  0.398385E-01  0.315117      0.893525E-01  0.34677      -9.6358       21.529     
   7.94384  0.246878E-01  0.196116      0.888949E-01  0.34499      -9.5890       21.710     
   7.97876  0.843022E-02  0.672628E-01  0.883943E-01  0.34305      -9.5407       21.896     
   8.01450 -0.831787E-02 -0.666636E-01  0.878513E-01  0.34094      -9.4912       22.086     
   8.05002 -0.244715E-01 -0.196996      0.872813E-01  0.33873      -9.4418       22.275     
   8.08481 -0.392453E-01 -0.317291      0.866951E-01  0.33646      -9.3932       22.461     
   8.12003 -0.526265E-01 -0.427329      0.860742E-01  0.33405      -9.3439       22.649     
   8.15399 -0.635901E-01 -0.518513      0.854506E-01  0.33163      -9.2963       22.830     
   8.18815 -0.723449E-01 -0.592371      0.847997E-01  0.32910      -9.2482       23.013     
   8.22180 -0.784810E-01 -0.645255      0.841362E-01  0.32652      -9.2007       23.193     
   8.25590 -0.820018E-01 -0.676998      0.834427E-01  0.32383      -9.1524       23.376     
   8.29043 -0.827197E-01 -0.685782      0.827198E-01  0.32103      -9.1033       23.561     
   8.32325 -0.807595E-01 -0.672182      0.820144E-01  0.31829      -9.0565       23.737     
   8.35577 -0.763761E-01 -0.638181      0.812994E-01  0.31551      -9.0100       23.912     
   8.38875 -0.696264E-01 -0.584079      0.805591E-01  0.31264      -8.9627       24.089     
   8.42136 -0.609165E-01 -0.512999      0.798132E-01  0.30975      -8.9157       24.264     
   8.45415 -0.504232E-01 -0.426285      0.790502E-01  0.30679      -8.8683       24.441     
   8.48801 -0.381464E-01 -0.323787      0.782503E-01  0.30368      -8.8192       24.624     
   8.52020 -0.255147E-01 -0.217390      0.774798E-01  0.30069      -8.7724       24.797     
   8.55174 -0.126177E-01 -0.107904      0.767162E-01  0.29773      -8.7263       24.968     
   8.58391  0.658974E-03  0.565657E-02  0.759298E-01  0.29468      -8.6792       25.141     
   8.61666  0.138823E-01  0.119619      0.751229E-01  0.29154      -8.6310       25.319     
   8.64873  0.261557E-01  0.226214      0.743272E-01  0.28846      -8.5837       25.492     
   8.68081  0.373933E-01  0.324604      0.735274E-01  0.28535      -8.5361       25.666     
   8.71291  0.472768E-01  0.411918      0.727243E-01  0.28224      -8.4884       25.840     
   8.74477  0.554722E-01  0.485091      0.719251E-01  0.27913      -8.4409       26.014     
   8.77751  0.619866E-01  0.544088      0.711031E-01  0.27594      -8.3918       26.192     
   8.80955  0.663314E-01  0.584349      0.702991E-01  0.27282      -8.3437       26.366     
   8.84083  0.685464E-01  0.606007      0.695153E-01  0.26978      -8.2965       26.536     
   8.87229  0.687281E-01  0.609776      0.687288E-01  0.26673      -8.2488       26.708     
   8.90378  0.668907E-01  0.595580      0.679447E-01  0.26369      -8.2010       26.880     
   8.93478  0.632011E-01  0.564688      0.671766E-01  0.26071      -8.1537       27.049     
   8.96567  0.578115E-01  0.518319      0.664155E-01  0.25775      -8.1065       27.218     
   8.99671  0.508605E-01  0.457578      0.656557E-01  0.25480      -8.0589       27.388     
   9.02786  0.425753E-01  0.384364      0.648992E-01  0.25187      -8.0110       27.559     
   9.05772  0.336442E-01  0.304740      0.641798E-01  0.24908      -7.9649       27.723     
   9.08974  0.232896E-01  0.211696      0.634155E-01  0.24611      -7.9153       27.898     
   9.12077  0.128008E-01  0.116753      0.626826E-01  0.24326      -7.8671       28.069     
   9.15137  0.231910E-02  0.212230E-01  0.619672E-01  0.24049      -7.8195       28.237     
   9.18231 -0.810801E-02 -0.744503E-01  0.612521E-01  0.23771      -7.7712       28.407     
   9.21306 -0.180097E-01 -0.165925      0.605501E-01  0.23499      -7.7231       28.576     
   9.24273 -0.268776E-01 -0.248423      0.598807E-01  0.23239      -7.6766       28.740     
   9.27307 -0.350087E-01 -0.324638      0.592052E-01  0.22977      -7.6289       28.907     
   9.30371 -0.420563E-01 -0.391280      0.585321E-01  0.22716      -7.5806       29.076     
   9.33340 -0.476054E-01 -0.444320      0.578886E-01  0.22466      -7.5337       29.240     
   9.36335 -0.517983E-01 -0.485005      0.572488E-01  0.22218      -7.4864       29.405     
   9.39304 -0.544821E-01 -0.511753      0.566235E-01  0.21975      -7.4393       29.569     
   9.42265 -0.556566E-01 -0.524433      0.560087E-01  0.21736      -7.3923       29.733     
   9.45369 -0.552762E-01 -0.522565      0.553741E-01  0.21490      -7.3429       29.905     
   9.48369 -0.533849E-01 -0.506286      0.547705E-01  0.21256      -7.2952       30.071     
   9.51314 -0.501498E-01 -0.477082      0.541867E-01  0.21029      -7.2482       30.234     
   9.54277 -0.456321E-01 -0.435457      0.536085E-01  0.20805      -7.2009       30.398     
   9.57208 -0.400591E-01 -0.383449      0.530455E-01  0.20586      -7.1540       30.560     
   9.60215 -0.333740E-01 -0.320462      0.524769E-01  0.20366      -7.1058       30.727     
   9.63178 -0.260273E-01 -0.250689      0.519257E-01  0.20152      -7.0583       30.891     
   9.66143 -0.181315E-01 -0.175176      0.513830E-01  0.19941      -7.0107       31.055     
   9.69083 -0.998136E-02 -0.967277E-01  0.508535E-01  0.19736      -6.9635       31.218     
   9.72044 -0.167258E-02 -0.162582E-01  0.503287E-01  0.19532      -6.9158       31.383     
   9.74906  0.624203E-02  0.608539E-01  0.498297E-01  0.19338      -6.8698       31.542     
   9.77799  0.139286E-01  0.136194      0.493333E-01  0.19146      -6.8231       31.702     
   9.80762  0.212759E-01  0.208666      0.488331E-01  0.18952      -6.7753       31.867     
   9.83724  0.279056E-01  0.274514      0.483414E-01  0.18761      -6.7274       32.031     
   9.86513  0.333478E-01  0.328981      0.478859E-01  0.18584      -6.6823       32.186     
   9.89371  0.379965E-01  0.375926      0.474267E-01  0.18406      -6.6361       32.345     
   9.92163  0.415376E-01  0.412121      0.469854E-01  0.18235      -6.5908       32.500     
   9.95114  0.441320E-01  0.439164      0.465268E-01  0.18057      -6.5430       32.664     
   9.97962  0.454749E-01  0.453822      0.460914E-01  0.17888      -6.4967       32.823     
  10.00856  0.456566E-01  0.456957      0.456568E-01  0.17719      -6.4497       32.984     
  10.03732  0.446729E-01  0.448397      0.452321E-01  0.17554      -6.4029       33.144     
  10.06544  0.426334E-01  0.429123      0.448243E-01  0.17396      -6.3571       33.301     
  10.09335  0.396211E-01  0.399909      0.444264E-01  0.17241      -6.3117       33.456     
  10.12123  0.357174E-01  0.361504      0.440359E-01  0.17090      -6.2662       33.611     
  10.15012  0.308448E-01  0.313079      0.436386E-01  0.16936      -6.2190       33.773     
  10.17807  0.254583E-01  0.259116      0.432614E-01  0.16789      -6.1733       33.928     
  10.20627  0.194952E-01  0.198973      0.428879E-01  0.16644      -6.1271       34.086     
  10.23453  0.131430E-01  0.134512      0.425210E-01  0.16502      -6.0808       34.243     
  10.26345  0.641781E-02  0.658689E-01  0.421529E-01  0.16359      -6.0333       34.405     
  10.29115 -0.736602E-04 -0.758048E-03  0.418076E-01  0.16225      -5.9879       34.559     
  10.31823 -0.631914E-02 -0.652024E-01  0.414769E-01  0.16097      -5.9433       34.710     
  10.34636 -0.125546E-01 -0.129894      0.411404E-01  0.15966      -5.8970       34.868     
  10.37442 -0.183695E-01 -0.190573      0.408121E-01  0.15839      -5.8508       35.024     
  10.40200 -0.235619E-01 -0.245091      0.404968E-01  0.15716      -5.8054       35.178     
  10.42847 -0.279548E-01 -0.291525      0.402007E-01  0.15601      -5.7617       35.326     
  10.45561 -0.317639E-01 -0.332111      0.399041E-01  0.15486      -5.7169       35.478     
  10.48274 -0.347950E-01 -0.364746      0.396146E-01  0.15374      -5.6721       35.630     
  10.51067 -0.370436E-01 -0.389353      0.393239E-01  0.15261      -5.6259       35.786     
  10.53727 -0.383258E-01 -0.403849      0.390539E-01  0.15156      -5.5819       35.935     
  10.56377 -0.387522E-01 -0.409369      0.387917E-01  0.15055      -5.5381       36.083     
  10.59114 -0.383036E-01 -0.405679      0.385280E-01  0.14952      -5.4928       36.236     
  10.61767 -0.370273E-01 -0.393143      0.382791E-01  0.14856      -5.4489       36.385     
  10.64492 -0.348946E-01 -0.371450      0.380305E-01  0.14759      -5.4037       36.537     
  10.67271 -0.319241E-01 -0.340716      0.377843E-01  0.14664      -5.3577       36.693     
  10.69881 -0.284721E-01 -0.304618      0.375597E-01  0.14577      -5.3145       36.839     
  10.72512 -0.244279E-01 -0.261992      0.373397E-01  0.14491      -5.2710       36.986     
  10.75137 -0.199182E-01 -0.214148      0.371267E-01  0.14408      -5.2276       37.133     
  10.77798 -0.149678E-01 -0.161322      0.369172E-01  0.14327      -5.1836       37.282     
  10.80493 -0.967847E-02 -0.104575      0.367115E-01  0.14247      -5.1391       37.432     
  10.83169 -0.426907E-02 -0.462413E-01  0.365137E-01  0.14171      -5.0949       37.582     
  10.85852  0.118992E-02  0.129208E-01  0.363215E-01  0.14096      -5.0507       37.732     
  10.88514  0.652293E-02  0.710030E-01  0.361370E-01  0.14024      -5.0069       37.881     
  10.91179  0.116618E-01  0.127251      0.359582E-01  0.13955      -4.9631       38.029     
  10.93854  0.165122E-01  0.180620      0.357844E-01  0.13888      -4.9191       38.179     
  10.96436  0.208032E-01  0.228093      0.356220E-01  0.13825      -4.8768       38.323     
  10.99096  0.247340E-01  0.271850      0.354600E-01  0.13762      -4.8333       38.471     
  11.01694  0.280189E-01  0.308682      0.353067E-01  0.13702      -4.7909       38.616     
