# Normalized Absorption: Au300K                                  
#  
# No. of glitches: --- to be done ---
#  
# No. of sec.edges:    0
#   A_nor = (abs - pre_edge - multiple_edges)/jump:#        Normalized absorption used for EXAFS estraction
#   A_0   = (abs - pre_edge)/jump#        Absorption - PreEdge only
#   SPL_nor = (SPL )/jump#        splines used to fit A_nor
#   SPL_ME_nor = (SPL + multiple_edges)/jump#        splines fitting A_0
#  1_E   2_A_nor   3_A_0   4_SPL_nor   5_SPL_ME_nor
  11699.999  0.310710E-02  0.310710E-02   0.00000       0.00000     
  11709.980  0.235104E-02  0.235104E-02   0.00000       0.00000     
  11720.010  0.151582E-02  0.151582E-02   0.00000       0.00000     
  11730.035  0.514493E-03  0.514493E-03   0.00000       0.00000     
  11740.091  0.827265E-04  0.827265E-04   0.00000       0.00000     
  11750.105 -0.904619E-03 -0.904619E-03   0.00000       0.00000     
  11760.208 -0.143416E-02 -0.143416E-02   0.00000       0.00000     
  11770.339 -0.143865E-02 -0.143865E-02   0.00000       0.00000     
  11780.483 -0.163231E-02 -0.163231E-02   0.00000       0.00000     
  11790.656 -0.179215E-02 -0.179215E-02   0.00000       0.00000     
  11800.819 -0.177479E-02 -0.177479E-02   0.00000       0.00000     
  11811.049 -0.222953E-02 -0.222953E-02   0.00000       0.00000     
  11821.325 -0.174711E-02 -0.174711E-02   0.00000       0.00000     
  11831.531 -0.159785E-02 -0.159785E-02   0.00000       0.00000     
  11841.933 -0.122933E-02 -0.122933E-02   0.00000       0.00000     
  11852.198 -0.196966E-03 -0.196966E-03   0.00000       0.00000     
  11862.533  0.589403E-03  0.589403E-03   0.00000       0.00000     
  11872.857  0.196447E-02  0.196447E-02   0.00000       0.00000     
  11883.154  0.585242E-02  0.585242E-02   0.00000       0.00000     
  11893.498  0.130577E-01  0.130577E-01   0.00000       0.00000     
  11901.195  0.240219E-01  0.240219E-01   0.00000       0.00000     
  11902.168  0.264905E-01  0.264905E-01   0.00000       0.00000     
  11903.153  0.288304E-01  0.288304E-01   0.00000       0.00000     
  11904.166  0.320552E-01  0.320552E-01   0.00000       0.00000     
  11905.135  0.361011E-01  0.361011E-01   0.00000       0.00000     
  11906.129  0.403473E-01  0.403473E-01   0.00000       0.00000     
  11907.075  0.445547E-01  0.445547E-01   0.00000       0.00000     
  11908.078  0.500463E-01  0.500463E-01   0.00000       0.00000     
  11909.118  0.567690E-01  0.567690E-01   0.00000       0.00000     
  11910.094  0.641467E-01  0.641467E-01   0.00000       0.00000     
  11911.070  0.730515E-01  0.730515E-01   0.00000       0.00000     
  11912.078  0.837354E-01  0.837354E-01   0.00000       0.00000     
  11913.095  0.978274E-01  0.978274E-01   0.00000       0.00000     
  11914.055  0.116718      0.116718       0.00000       0.00000     
  11915.051  0.141648      0.141648      0.151394      0.151394     
  11916.049  0.180236      0.180236      0.363221      0.363221     
  11917.048  0.242609      0.242609      0.456642      0.456642     
  11918.047  0.332173      0.332173      0.522516      0.522516     
  11919.092  0.439335      0.439335      0.576207      0.576207     
  11920.084  0.557031      0.557031      0.618054      0.618054     
  11921.077  0.653930      0.653930      0.653688      0.653688     
  11922.072  0.716790      0.716790      0.684666      0.684666     
  11923.048  0.756183      0.756183      0.711434      0.711434     
  11924.061  0.777174      0.777174      0.736150      0.736150     
  11925.027  0.783693      0.783693      0.757303      0.757303     
  11926.043  0.784550      0.784550      0.777404      0.777404     
  11927.021  0.785402      0.785402      0.794970      0.794970     
  11928.037  0.793779      0.793779      0.811614      0.811614     
  11929.035  0.809058      0.809058      0.826569      0.826569     
  11930.040  0.831225      0.831225      0.840398      0.840398     
  11931.029  0.852044      0.852044      0.852932      0.852932     
  11931.998  0.867468      0.867468      0.864287      0.864287     
  11933.017  0.878820      0.878820      0.875335      0.875335     
  11934.014  0.884628      0.884628      0.885343      0.885343     
  11935.011  0.885630      0.885630      0.894631      0.894631     
  11936.024  0.885516      0.885516      0.903394      0.903394     
  11937.003  0.886970      0.886970      0.911272      0.911272     
  11938.001  0.892535      0.892535      0.918754      0.918754     
  11938.983  0.901389      0.901389      0.925616      0.925616     
  11939.995  0.909900      0.909900      0.932208      0.932208     
  11940.987  0.920024      0.920024      0.938232      0.938232     
  11941.977  0.939186      0.939186      0.943843      0.943843     
  11943.022  0.973015      0.973015      0.949362      0.949362     
  11944.047   1.01154       1.01154      0.954401      0.954401     
  11945.046   1.04837       1.04837      0.958978      0.958978     
  11946.044   1.07121       1.07121      0.963244      0.963244     
  11947.036   1.07458       1.07458      0.967200      0.967200     
  11948.098   1.06174       1.06174      0.971141      0.971141     
  11949.099   1.04066       1.04066      0.974595      0.974595     
  11950.102   1.01913       1.01913      0.977817      0.977817     
  11951.083  0.998002      0.998002      0.980751      0.980751     
  11952.085  0.984283      0.984283      0.983539      0.983539     
  11953.069  0.978192      0.978192      0.986084      0.986084     
  11954.099  0.977084      0.977084      0.988554      0.988554     
  11955.113  0.973964      0.973964      0.990804      0.990804     
  11956.106  0.968366      0.968366      0.992841      0.992841     
  11957.096  0.960957      0.960957      0.994719      0.994719     
  11958.078  0.955318      0.955318      0.996438      0.996438     
  11959.093  0.953799      0.953799      0.998073      0.998073     
  11960.093  0.956956      0.956956      0.999550      0.999550     
  11961.108  0.964955      0.964955       1.00092       1.00092     
  11962.102  0.974905      0.974905       1.00215       1.00215     
  11963.105  0.988959      0.988959       1.00327       1.00327     
  11964.126   1.00460       1.00460       1.00431       1.00431     
  11965.114   1.02112       1.02112       1.00521       1.00521     
  11966.106   1.03755       1.03755       1.00602       1.00602     
  11967.111   1.05383       1.05383       1.00675       1.00675     
  11968.151   1.06637       1.06637       1.00742       1.00742     
  11969.176   1.07232       1.07232       1.00799       1.00799     
  11970.244   1.07169       1.07169       1.00851       1.00851     
  11971.220   1.06698       1.06698       1.00891       1.00891     
  11972.233   1.05831       1.05831       1.00925       1.00925     
  11973.244   1.04914       1.04914       1.00953       1.00953     
  11974.229   1.04130       1.04130       1.00974       1.00974     
  11975.259   1.03442       1.03442       1.00991       1.00991     
  11976.243   1.02821       1.02821       1.01001       1.01001     
  11977.258   1.02268       1.02268       1.01006       1.01006     
  11978.298   1.01823       1.01823       1.01007       1.01007     
  11979.321   1.01314       1.01314       1.01003       1.01003     
  11980.342   1.00943       1.00943       1.00994       1.00994     
  11981.401   1.00751       1.00751       1.00981       1.00981     
  11982.426   1.00570       1.00570       1.00965       1.00965     
  11983.454   1.00300       1.00300       1.00944       1.00944     
  11984.479   1.00003       1.00003       1.00921       1.00921     
  11985.530  0.995686      0.995686       1.00894       1.00894     
  11986.556  0.989330      0.989330       1.00864       1.00864     
  11987.550  0.983004      0.983004       1.00833       1.00833     
  11988.587  0.975229      0.975229       1.00797       1.00797     
  11989.575  0.968464      0.968464       1.00762       1.00762     
  11990.595  0.963321      0.963321       1.00723       1.00723     
  11991.589  0.959428      0.959428       1.00683       1.00683     
  11992.596  0.958012      0.958012       1.00641       1.00641     
  11993.599  0.958730      0.958730       1.00598       1.00598     
  11994.608  0.960044      0.960044       1.00553       1.00553     
  11995.626  0.961834      0.961834       1.00507       1.00507     
  11996.624  0.964388      0.964388       1.00460       1.00460     
  11997.623  0.967148      0.967148       1.00412       1.00412     
  11998.641  0.970710      0.970710       1.00363       1.00363     
  11999.649  0.975601      0.975601       1.00313       1.00313     
  12000.655  0.981574      0.981574       1.00263       1.00263     
  12001.663  0.988676      0.988676       1.00212       1.00212     
  12002.676  0.996948      0.996948       1.00161       1.00161     
  12003.687   1.00581       1.00581       1.00110       1.00110     
  12004.695   1.01381       1.01381       1.00059       1.00059     
  12005.736   1.02067       1.02067       1.00006       1.00006     
  12006.769   1.02486       1.02486      0.999532      0.999532     
  12007.778   1.02720       1.02720      0.999022      0.999022     
  12008.783   1.02859       1.02859      0.998517      0.998517     
  12009.797   1.02862       1.02862      0.998010      0.998010     
  12010.892   1.02712       1.02712      0.997469      0.997469     
  12011.880   1.02520       1.02520      0.996987      0.996987     
  12012.863   1.02272       1.02272      0.996513      0.996513     
  12013.900   1.01944       1.01944      0.996021      0.996021     
  12014.911   1.01572       1.01572      0.995549      0.995549     
  12015.922   1.01280       1.01280      0.995086      0.995086     
  12016.932   1.00912       1.00912      0.994633      0.994633     
  12017.929   1.00552       1.00552      0.994195      0.994195     
  12018.949   1.00367       1.00367      0.993759      0.993759     
  12019.956   1.00121       1.00121      0.993340      0.993340     
  12021.973  0.998494      0.998494      0.992538      0.992538     
  12023.950  0.998235      0.998235      0.991804      0.991804     
  12026.008  0.999997      0.999997      0.991100      0.991100     
  12027.965   1.00172       1.00172      0.990490      0.990490     
  12029.963   1.00316       1.00316      0.989933      0.989933     
  12031.956   1.00364       1.00364      0.989446      0.989446     
  12033.953   1.00102       1.00102      0.989031      0.989031     
  12035.975  0.997377      0.997377      0.988688      0.988688     
  12038.001  0.992199      0.992199      0.988427      0.988427     
  12039.985  0.984557      0.984557      0.988253      0.988253     
  12041.978  0.977649      0.977649      0.988163      0.988163     
  12043.990  0.970643      0.970643      0.988162      0.988162     
  12046.004  0.965466      0.965466      0.988252      0.988252     
  12047.998  0.962857      0.962857      0.988435      0.988435     
  12049.997  0.962586      0.962586      0.988714      0.988714     
  12051.974  0.964684      0.964684      0.989087      0.989087     
  12053.970  0.968530      0.968530      0.989506      0.989506     
  12056.020  0.975148      0.975148      0.989902      0.989902     
  12057.997  0.980568      0.980568      0.990251      0.990251     
  12060.057  0.986156      0.986156      0.990582      0.990582     
  12062.117  0.991012      0.991012      0.990881      0.990881     
  12064.134  0.994533      0.994533      0.991143      0.991143     
  12066.154  0.997668      0.997668      0.991378      0.991378     
  12068.149   1.00027       1.00027      0.991583      0.991583     
  12070.185   1.00188       1.00188      0.991766      0.991766     
  12072.231   1.00314       1.00314      0.991924      0.991924     
  12074.305   1.00391       1.00391      0.992059      0.992059     
  12076.326   1.00411       1.00411      0.992168      0.992168     
  12078.358   1.00310       1.00310      0.992255      0.992255     
  12080.403   1.00120       1.00120      0.992321      0.992321     
  12082.447  0.999301      0.999301      0.992366      0.992366     
  12084.494  0.998516      0.998516      0.992392      0.992392     
  12086.528  0.999222      0.999222      0.992400      0.992400     
  12088.533   1.00183       1.00183      0.992390      0.992390     
  12090.540   1.00485       1.00485      0.992363      0.992363     
  12092.572   1.00798       1.00798      0.992320      0.992320     
  12094.616   1.01076       1.01076      0.992261      0.992261     
  12096.654   1.01048       1.01048      0.992188      0.992188     
  12098.703   1.00721       1.00721      0.992101      0.992101     
  12100.776   1.00175       1.00175      0.991998      0.991998     
  12102.844  0.993702      0.993702      0.991884      0.991884     
  12104.860  0.984876      0.984876      0.991760      0.991760     
  12106.906  0.976208      0.976208      0.991623      0.991623     
  12108.913  0.971271      0.971271      0.991478      0.991478     
  12110.958  0.968370      0.968370      0.991321      0.991321     
  12113.014  0.967748      0.967748      0.991153      0.991153     
  12115.070  0.967417      0.967417      0.990976      0.990976     
  12117.192  0.966900      0.966900      0.990784      0.990784     
  12119.275  0.966897      0.966897      0.990588      0.990588     
  12121.373  0.967038      0.967038      0.990383      0.990383     
  12123.454  0.967620      0.967620      0.990172      0.990172     
  12125.482  0.968913      0.968913      0.989960      0.989960     
  12127.489  0.970111      0.970111      0.989745      0.989745     
  12129.552  0.971640      0.971640      0.989519      0.989519     
  12131.595  0.974428      0.974428      0.989289      0.989289     
  12133.624  0.978063      0.978063      0.989057      0.989057     
  12135.666  0.982704      0.982704      0.988819      0.988819     
  12137.643  0.987981      0.987981      0.988586      0.988586     
  12139.725  0.993525      0.993525      0.988337      0.988337     
  12141.741  0.999497      0.999497      0.988092      0.988092     
  12143.785   1.00670       1.00670      0.987842      0.987842     
  12145.792   1.01469       1.01469      0.987595      0.987595     
  12147.823   1.01990       1.01990      0.987343      0.987343     
  12149.875   1.02441       1.02441      0.987086      0.987086     
  12151.889   1.02626       1.02626      0.986834      0.986834     
  12153.962   1.02515       1.02515      0.986573      0.986573     
  12156.030   1.02162       1.02162      0.986313      0.986313     
  12158.132   1.01688       1.01688      0.986048      0.986048     
  12160.182   1.01084       1.01084      0.985790      0.985790     
  12162.237   1.00419       1.00419      0.985532      0.985532     
  12164.257  0.997044      0.997044      0.985279      0.985279     
  12166.396  0.989210      0.989210      0.985013      0.985013     
  12168.472  0.979955      0.979955      0.984756      0.984756     
  12170.549  0.969935      0.969935      0.984500      0.984500     
  12172.630  0.961083      0.961083      0.984246      0.984246     
  12174.704  0.955623      0.955623      0.983995      0.983995     
  12176.781  0.953633      0.953633      0.983747      0.983747     
  12178.878  0.954482      0.954482      0.983499      0.983499     
  12180.935  0.956666      0.956666      0.983258      0.983258     
  12183.008  0.960826      0.960826      0.983019      0.983019     
  12185.104  0.966992      0.966992      0.982782      0.982782     
  12187.187  0.972585      0.972585      0.982549      0.982549     
  12189.278  0.977107      0.977107      0.982320      0.982320     
  12191.395  0.979691      0.979691      0.982092      0.982092     
  12193.476  0.979164      0.979164      0.981873      0.981873     
  12195.523  0.975639      0.975639      0.981661      0.981661     
  12197.601  0.970235      0.970235      0.981452      0.981452     
  12199.633  0.965713      0.965713      0.981252      0.981252     
  12201.717  0.963874      0.963874      0.981052      0.981052     
  12203.805  0.964436      0.964436      0.980858      0.980858     
  12205.896  0.966854      0.966854      0.980669      0.980669     
  12207.985  0.971392      0.971392      0.980486      0.980486     
  12210.076  0.977296      0.977296      0.980309      0.980309     
  12212.167  0.983079      0.983079      0.980139      0.980139     
  12214.259  0.988143      0.988143      0.979975      0.979975     
  12216.345  0.993373      0.993373      0.979818      0.979818     
  12218.385  0.997687      0.997687      0.979671      0.979671     
  12220.454   1.00223       1.00223      0.979529      0.979529     
  12222.528   1.00703       1.00703      0.979394      0.979394     
  12224.579   1.01052       1.01052      0.979265      0.979265     
  12226.631   1.01176       1.01176      0.979132      0.979132     
  12228.723   1.01145       1.01145      0.978988      0.978988     
  12230.776   1.00903       1.00903      0.978840      0.978840     
  12232.859   1.00469       1.00469      0.978683      0.978683     
  12234.958  0.998799      0.998799      0.978518      0.978518     
  12237.065  0.989207      0.989207      0.978346      0.978346     
  12239.160  0.980748      0.980748      0.978167      0.978167     
  12242.973  0.965860      0.965860      0.977827      0.977827     
  12246.038  0.957365      0.957365      0.977539      0.977539     
  12249.030  0.952066      0.952066      0.977246      0.977246     
  12252.047  0.951997      0.951997      0.976940      0.976940     
  12255.074  0.954828      0.954828      0.976621      0.976621     
  12258.229  0.958863      0.958863      0.976277      0.976277     
  12261.263  0.964174      0.964174      0.975937      0.975937     
  12264.300  0.968844      0.968844      0.975586      0.975586     
  12267.335  0.971325      0.971325      0.975226      0.975226     
  12270.436  0.972836      0.972836      0.974850      0.974850     
  12273.474  0.973122      0.973122      0.974473      0.974473     
  12276.515  0.969184      0.969184      0.974087      0.974087     
  12279.551  0.963887      0.963887      0.973695      0.973695     
  12282.593  0.959436      0.959436      0.973295      0.973295     
  12285.656  0.957767      0.957767      0.972885      0.972885     
  12288.742  0.960078      0.960078      0.972465      0.972465     
  12291.795  0.967350      0.967350      0.972044      0.972044     
  12294.851  0.974456      0.974456      0.971617      0.971617     
  12298.018  0.979485      0.979485      0.971169      0.971169     
  12301.009  0.982292      0.982292      0.970741      0.970741     
  12304.008  0.983183      0.983183      0.970307      0.970307     
  12307.063  0.982694      0.982694      0.969861      0.969861     
  12310.203  0.984131      0.984131      0.969398      0.969398     
  12313.245  0.986664      0.986664      0.968947      0.968947     
  12316.310  0.989418      0.989418      0.968488      0.968488     
  12319.367  0.989023      0.989023      0.968028      0.968028     
  12322.430  0.986957      0.986957      0.967564      0.967564     
  12325.532  0.982023      0.982023      0.967091      0.967091     
  12328.562  0.973435      0.973435      0.966628      0.966628     
  12331.697  0.962437      0.962437      0.966146      0.966146     
  12334.770  0.951296      0.951296      0.965673      0.965673     
  12337.930  0.941720      0.941720      0.965184      0.965184     
  12340.978  0.934721      0.934721      0.964712      0.964712     
  12344.052  0.932662      0.932662      0.964235      0.964235     
  12347.163  0.934127      0.934127      0.963752      0.963752     
  12350.301  0.937757      0.937757      0.963264      0.963264     
