# Pre edge removal and derivative
#       SAMPLE: Au300K                                  
#     
# pre-edge limits:     11699.999 11890.000
# linear pre-edge: ax+b    
# linear coefficients a, b:-0.39798E-03   5.8176     
#     
# Edge Energy:         11915.000
#     
# White line energy:   11947.036
#     
#   1_E(eV)  2_abs-PE  3_der1   4_der2   5_noise
   11700.      0.28059E-02   0.0000       0.0000       0.0000     
   11710.      0.21231E-02 -0.71803E-04 -0.67906E-06  0.33990E-04 
   11720.      0.13689E-02 -0.82699E-04 -0.14958E-05  0.75202E-04 
   11730.      0.46461E-03 -0.64486E-04  0.51218E-05 -0.25817E-03 
   11740.      0.74706E-04 -0.63905E-04 -0.50089E-05  0.25220E-03 
   11750.     -0.81692E-03 -0.68185E-04  0.41462E-05 -0.20974E-03 
   11760.     -0.12951E-02 -0.23867E-04  0.46389E-05 -0.23741E-03 
   11770.     -0.12992E-02 -0.88203E-05 -0.16611E-05  0.85356E-04 
   11780.     -0.14741E-02 -0.15714E-04  0.30037E-06 -0.15499E-04 
   11791.     -0.16184E-02 -0.63231E-05  0.15471E-05 -0.79978E-04 
   11801.     -0.16027E-02 -0.19300E-04 -0.40882E-05  0.21252E-03 
   11811.     -0.20134E-02  0.11262E-05  0.80501E-05 -0.42313E-03 
   11821.     -0.15777E-02  0.27801E-04 -0.28501E-05  0.14945E-03 
   11832.     -0.14429E-02  0.22600E-04  0.18232E-05 -0.96779E-04 
   11842.     -0.11101E-02  0.61407E-04  0.56928E-05 -0.30393E-03 
   11852.     -0.17787E-03  0.79766E-04 -0.21465E-05  0.11386E-03 
   11863.      0.53226E-03  0.94495E-04  0.49922E-05 -0.26633E-03 
   11873.      0.17740E-02  0.23063E-03  0.21405E-04 -0.11377E-02 
   11883.      0.52850E-02  0.48500E-03  0.27911E-04 -0.14864E-02 
   11893.      0.11792E-01  0.95771E-03  0.72872E-04 -0.29010E-02 
   11901.      0.21693E-01  0.17887E-02  0.23177E-03 -0.86788E-03 
   11902.      0.23922E-01  0.22181E-02 -0.14904E-03  0.71418E-04 
   11903.      0.26035E-01  0.25100E-02  0.73032E-03 -0.36436E-03 
   11904.      0.28947E-01  0.33227E-02  0.90388E-03 -0.44362E-03 
   11905.      0.32601E-01  0.38141E-02  0.88853E-04 -0.42791E-04 
   11906.      0.36436E-01  0.39371E-02  0.16354E-03 -0.76891E-04 
   11907.      0.40235E-01  0.44804E-02  0.95225E-03 -0.45177E-03 
   11908.      0.45194E-01  0.53909E-02  0.87427E-03 -0.45598E-03 
   11909.      0.51265E-01  0.63318E-02  0.98101E-03 -0.49788E-03 
   11910.      0.57928E-01  0.75327E-02  0.14477E-02 -0.68950E-03 
   11911.      0.65969E-01  0.89054E-02  0.13432E-02 -0.66071E-03 
   11912.      0.75617E-01  0.11042E-01  0.29051E-02 -0.14891E-02 
   11913.      0.88343E-01  0.15141E-01  0.53180E-02 -0.25960E-02 
   11914.      0.10540      0.20187E-01  0.49427E-02 -0.23630E-02 
   11915.      0.12792      0.28760E-01  0.12349E-01 -0.61376E-02 
   11916.      0.16276      0.45649E-01  0.21499E-01 -0.10717E-01 
   11917.      0.21909      0.68672E-01  0.24603E-01 -0.12277E-01 
   11918.      0.29997      0.86783E-01  0.11393E-01 -0.59466E-02 
   11919.      0.39674      0.99874E-01  0.14274E-01 -0.73986E-02 
   11920.      0.50303      0.97632E-01 -0.19166E-01  0.94396E-02 
   11921.      0.59053      0.72586E-01 -0.31257E-01  0.15442E-01 
   11922.      0.64730      0.46750E-01 -0.20906E-01  0.10151E-01 
   11923.      0.68287      0.27581E-01 -0.17833E-01  0.88158E-02 
   11924.      0.70183      0.12404E-01 -0.12752E-01  0.62393E-02 
   11925.      0.70771      0.34279E-02 -0.53819E-02  0.26411E-02 
   11926.      0.70849      0.77385E-03  0.25435E-04 -0.12637E-04 
   11927.      0.70926      0.41164E-02  0.66797E-02 -0.33186E-02 
   11928.      0.71682      0.10636E-01  0.63343E-02 -0.32114E-02 
   11929.      0.73062      0.16872E-01  0.60844E-02 -0.30513E-02 
   11930.      0.75064      0.19464E-01 -0.91140E-03  0.45294E-03 
   11931.      0.76944      0.16692E-01 -0.47349E-02  0.22688E-02 
   11932.      0.78337      0.12217E-01 -0.43399E-02  0.21426E-02 
   11933.      0.79362      0.76605E-02 -0.47617E-02  0.24188E-02 
   11934.      0.79886      0.30840E-02 -0.43662E-02  0.21700E-02 
   11935.      0.79977      0.40299E-03 -0.10040E-02  0.50701E-03 
   11936.      0.79966      0.62014E-03  0.14491E-02 -0.71857E-03 
   11937.      0.80098      0.31885E-02  0.37364E-02 -0.18253E-02 
   11938.      0.80600      0.65888E-02  0.31385E-02 -0.15379E-02 
   11939.      0.81400      0.78685E-02 -0.54941E-03  0.27300E-03 
   11940.      0.82168      0.84051E-02  0.16177E-02 -0.81199E-03 
   11941.      0.83083      0.13348E-01  0.83393E-02 -0.40949E-02 
   11942.      0.84813      0.23357E-01  0.11551E-01 -0.59753E-02 
   11943.      0.87868      0.31587E-01  0.45488E-02 -0.24362E-02 
   11944.      0.91347      0.33616E-01 -0.64380E-03  0.32962E-03 
   11945.      0.94673      0.26979E-01 -0.12640E-01  0.63012E-02 
   11946.      0.96735      0.11869E-01 -0.17687E-01  0.87550E-02 
   11947.      0.97040     -0.39250E-02 -0.13623E-01  0.71759E-02 
   11948.      0.95880     -0.14969E-01 -0.78510E-02  0.41731E-02 
   11949.      0.93976     -0.19199E-01 -0.35937E-03  0.18040E-03 
   11950.      0.92033     -0.19416E-01 -0.75103E-04  0.36949E-04 
   11951.      0.90124     -0.15908E-01  0.71505E-02 -0.35143E-02 
   11952.      0.88886     -0.89767E-02  0.68214E-02 -0.33629E-02 
   11953.      0.88336     -0.32809E-02  0.45858E-02 -0.23239E-02 
   11954.      0.88235     -0.18752E-02 -0.17677E-02  0.92313E-03 
   11955.      0.87954     -0.39345E-02 -0.23038E-02  0.11599E-02 
   11956.      0.87448     -0.59245E-02 -0.16824E-02  0.82698E-03 
   11957.      0.86779     -0.59721E-02  0.15954E-02 -0.77551E-03 
   11958.      0.86270     -0.32686E-02  0.38395E-02 -0.19135E-02 
   11959.      0.86133      0.74960E-03  0.41715E-02 -0.21170E-02 
   11960.      0.86418      0.49841E-02  0.42345E-02 -0.21490E-02 
   11961.      0.87140      0.80780E-02  0.19130E-02 -0.96503E-03 
   11962.      0.88039      0.10847E-01  0.36208E-02 -0.18049E-02 
   11963.      0.89308      0.13245E-01  0.11666E-02 -0.59733E-03 
   11964.      0.90720      0.14468E-01  0.12609E-02 -0.63599E-03 
   11965.      0.92212      0.15025E-01 -0.15357E-03  0.75255E-04 
   11966.      0.93695      0.14793E-01 -0.31407E-03  0.15656E-03 
   11967.      0.95166      0.12760E-01 -0.36687E-02  0.19173E-02 
   11968.      0.96298      0.80652E-02 -0.54612E-02  0.29108E-02 
   11969.      0.96836      0.23537E-02 -0.55271E-02  0.30253E-02 
   11970.      0.96779     -0.24457E-02 -0.37326E-02  0.19454E-02 
   11971.      0.96354     -0.60407E-02 -0.33940E-02  0.16778E-02 
   11972.      0.95571     -0.79619E-02 -0.46158E-03  0.23636E-03 
   11973.      0.94742     -0.76901E-02  0.10128E-02 -0.50427E-03 
   11974.      0.94035     -0.66080E-02  0.11450E-02 -0.58084E-03 
   11975.      0.93413     -0.58669E-02  0.32623E-03 -0.16532E-03 
   11976.      0.92852     -0.53080E-02  0.78967E-03 -0.39435E-03 
   11977.      0.92353     -0.43889E-02  0.10208E-02 -0.53876E-03 
   11978.      0.91952     -0.41800E-02 -0.61168E-03  0.32539E-03 
   11979.      0.91492     -0.38871E-02  0.11905E-02 -0.62171E-03 
   11980.      0.91157     -0.24617E-02  0.15714E-02 -0.84955E-03 
   11981.      0.90983     -0.16184E-02  0.50143E-04 -0.27214E-04 
   11982.      0.90820     -0.19794E-02 -0.75436E-03  0.39743E-03 
   11983.      0.90576     -0.24931E-02 -0.24644E-03  0.12984E-03 
   11984.      0.90308     -0.31765E-02 -0.10730E-02  0.57794E-03 
   11986.      0.89915     -0.46638E-02 -0.17919E-02  0.96613E-03 
   11987.      0.89341     -0.56711E-02 -0.15215E-03  0.77585E-04 
   11988.      0.88770     -0.62593E-02 -0.10073E-02  0.51913E-03 
   11989.      0.88068     -0.64769E-02  0.58053E-03 -0.29739E-03 
   11990.      0.87457     -0.53680E-02  0.16235E-02 -0.81805E-03 
   11991.      0.86993     -0.40448E-02  0.10093E-02 -0.51166E-03 
   11992.      0.86641     -0.24035E-02  0.22652E-02 -0.11337E-02 
   11993.      0.86513     -0.31205E-03  0.19070E-02 -0.96308E-03 
   11994.      0.86578      0.91111E-03  0.52658E-03 -0.26646E-03 
   11995.      0.86697      0.13823E-02  0.40708E-03 -0.20907E-03 
   11996.      0.86858      0.19497E-02  0.71652E-03 -0.36398E-03 
   11997.      0.87089      0.24029E-02  0.18455E-03 -0.91997E-04 
   11998.      0.87338      0.28272E-02  0.65860E-03 -0.33489E-03 
   11999.      0.87660      0.37707E-02  0.12071E-02 -0.61935E-03 
   12000.      0.88102      0.48717E-02  0.97229E-03 -0.49297E-03 
   12001.      0.88641      0.58622E-02  0.99509E-03 -0.50454E-03 
   12002.      0.89282      0.68688E-02  0.10005E-02 -0.51082E-03 
   12003.      0.90029      0.76448E-02  0.53459E-03 -0.27375E-03 
   12004.      0.90830      0.75406E-02 -0.74240E-03  0.37829E-03 
   12005.      0.91552      0.65576E-02 -0.11874E-02  0.62297E-03 
   12006.      0.92171      0.48073E-02 -0.22027E-02  0.11843E-02 
   12007.      0.92550      0.28809E-02 -0.15362E-02  0.80059E-03 
   12008.      0.92761      0.16717E-02 -0.84405E-03  0.42795E-03 
   12009.      0.92887      0.63646E-03 -0.12091E-02  0.61606E-03 
   12010.      0.92889     -0.60618E-03 -0.11994E-02  0.66585E-03 
   12011.      0.92754     -0.14957E-02 -0.49379E-03  0.26710E-03 
   12012.      0.92581     -0.20136E-02 -0.52930E-03  0.25703E-03 
   12013.      0.92357     -0.25684E-02 -0.58211E-03  0.29670E-03 
   12014.      0.92060     -0.30908E-02 -0.44604E-03  0.23382E-03 
   12015.      0.91725     -0.29626E-02  0.70540E-03 -0.36050E-03 
   12016.      0.91461     -0.29510E-02 -0.68293E-03  0.34867E-03 
   12017.      0.91128     -0.32760E-02  0.39958E-04 -0.20118E-04 
   12018.      0.90804     -0.24486E-02  0.16011E-02 -0.81413E-03 
   12019.      0.90636     -0.19215E-02 -0.55312E-03  0.28407E-03 
   12020.      0.90414     -0.17096E-02  0.65114E-03 -0.66128E-03 
   12022.      0.90169     -0.66787E-03  0.55024E-03 -0.10971E-02 
   12024.      0.90146      0.32732E-03  0.44191E-03 -0.89900E-03 
   12026.      0.90305      0.78483E-03  0.11680E-04 -0.23521E-04 
   12028.      0.90461      0.72214E-03 -0.75256E-04  0.14713E-03 
   12030.      0.90590      0.43354E-03 -0.21467E-03  0.42741E-03 
   12032.      0.90634     -0.48177E-03 -0.70288E-03  0.13987E-02 
   12034.      0.90397     -0.14058E-02 -0.22186E-03  0.44794E-03 
   12036.      0.90068     -0.19685E-02 -0.33578E-03  0.68777E-03 
   12038.      0.89600     -0.28932E-02 -0.58339E-03  0.11725E-02 
   12040.      0.88910     -0.33042E-02  0.17483E-03 -0.34566E-03 
   12042.      0.88286     -0.31373E-02 -0.69400E-05  0.13914E-04 
   12044.      0.87654     -0.27329E-02  0.40873E-03 -0.82813E-03 
   12046.      0.87186     -0.17516E-02  0.56872E-03 -0.11420E-02 
   12048.      0.86951     -0.65202E-03  0.53067E-03 -0.10576E-02 
   12050.      0.86926      0.41807E-03  0.54361E-03 -0.10742E-02 
   12052.      0.87116      0.13493E-02  0.39353E-03 -0.77644E-03 
   12054.      0.87463      0.23276E-02  0.58077E-03 -0.11882E-02 
   12056.      0.88061      0.26955E-02 -0.21812E-03  0.44200E-03 
   12058.      0.88550      0.24627E-02 -0.13099E-04  0.26673E-04 
   12060.      0.89055      0.22892E-02 -0.15553E-03  0.33000E-03 
   12062.      0.89493      0.18528E-02 -0.27107E-03  0.56316E-03 
   12064.      0.89811      0.14890E-02 -0.86707E-04  0.17664E-03 
   12066.      0.90094      0.12902E-02 -0.11084E-03  0.22334E-03 
   12068.      0.90330      0.94489E-03 -0.23224E-03  0.47166E-03 
   12070.      0.90474      0.63433E-03 -0.74985E-04  0.15618E-03 
   12072.      0.90588      0.44679E-03 -0.10778E-03  0.22867E-03 
   12074.      0.90658      0.21349E-03 -0.11945E-03  0.25035E-03 
   12076.      0.90676     -0.17913E-03 -0.26680E-03  0.54782E-03 
   12078.      0.90585     -0.64506E-03 -0.19190E-03  0.39872E-03 
   12080.      0.90413     -0.83973E-03  0.90007E-06 -0.18811E-05 
   12082.      0.90242     -0.59242E-03  0.24091E-03 -0.50399E-03 
   12084.      0.90171     -0.16308E-04  0.32318E-03 -0.67280E-03 
   12087.      0.90235      0.74323E-03  0.42566E-03 -0.86796E-03 
   12089.      0.90470      0.12668E-02  0.93504E-04 -0.18813E-03 
   12091.      0.90743      0.13766E-02  0.15824E-04 -0.32266E-04 
   12093.      0.91026      0.13089E-02 -0.82084E-04  0.17046E-03 
   12095.      0.91276      0.55059E-03 -0.66114E-03  0.13770E-02 
   12097.      0.91251     -0.78229E-03 -0.64418E-03  0.13450E-02 
   12099.      0.90956     -0.19086E-02 -0.45428E-03  0.96479E-03 
   12101.      0.90463     -0.29463E-02 -0.55021E-03  0.11794E-02 
   12103.      0.89736     -0.37346E-02 -0.21414E-03  0.44637E-03 
   12105.      0.88939     -0.38895E-02  0.62698E-04 -0.12931E-03 
   12107.      0.88156     -0.30236E-02  0.79177E-03 -0.16256E-02 
   12109.      0.87711     -0.17513E-02  0.46403E-03 -0.95225E-03 
   12111.      0.87449     -0.77723E-03  0.49159E-03 -0.10335E-02 
   12113.      0.87392     -0.20927E-03  0.62217E-04 -0.13150E-03 
   12115.      0.87363     -0.18257E-03 -0.35675E-04  0.77822E-04 
   12117.      0.87316     -0.11064E-03  0.10387E-03 -0.22956E-03 
   12119.      0.87316      0.29537E-04  0.29639E-04 -0.64762E-04 
   12121.      0.87328      0.15669E-03  0.92052E-04 -0.20095E-03 
   12123.      0.87381      0.41418E-03  0.15704E-03 -0.33137E-03 
   12125.      0.87498      0.55724E-03 -0.18096E-04  0.36827E-04 
   12127.      0.87606      0.60421E-03  0.64100E-04 -0.13270E-03 
   12130.      0.87744      0.95098E-03  0.27429E-03 -0.57802E-03 
   12132.      0.87996      0.14252E-02  0.18922E-03 -0.39219E-03 
   12134.      0.88324      0.18350E-02  0.21344E-03 -0.44215E-03 
   12136.      0.88743      0.22314E-02  0.17835E-03 -0.35999E-03 
   12138.      0.89220      0.24077E-02 -0.29175E-05  0.60044E-05 
   12140.      0.89720      0.25397E-02  0.13180E-03 -0.27661E-03 
   12142.      0.90259      0.29280E-02  0.24950E-03 -0.51406E-03 
   12144.      0.90910      0.33898E-02  0.20589E-03 -0.42231E-03 
   12146.      0.91632      0.29558E-02 -0.63645E-03  0.12971E-02 
   12148.      0.92102      0.21500E-02 -0.15999E-03  0.33339E-03 
   12150.      0.92509      0.14078E-02 -0.56946E-03  0.11767E-02 
   12152.      0.92676      0.17232E-03 -0.64266E-03  0.13416E-02 
   12154.      0.92576     -0.10127E-02 -0.51040E-03  0.10940E-02 
   12156.      0.92257     -0.17875E-02 -0.23640E-03  0.51381E-03 
   12158.      0.91830     -0.23487E-02 -0.30322E-03  0.65331E-03 
   12160.      0.91284     -0.27924E-02 -0.12558E-03  0.26452E-03 
   12162.      0.90683     -0.30582E-02 -0.13440E-03  0.27896E-03 
   12164.      0.90038     -0.32513E-02 -0.54052E-04  0.11677E-03 
   12166.      0.89330     -0.36667E-02 -0.34089E-03  0.75687E-03 
   12168.      0.88495     -0.41912E-02 -0.15919E-03  0.34321E-03 
   12171.      0.87590     -0.40989E-02  0.24779E-03 -0.53549E-03 
   12173.      0.86790     -0.31093E-02  0.70469E-03 -0.15207E-02 
   12175.      0.86297     -0.16211E-02  0.72871E-03 -0.15695E-02 
   12177.      0.86118     -0.24967E-03  0.58958E-03 -0.12839E-02 
   12179.      0.86194      0.66203E-03  0.28548E-03 -0.61572E-03 
   12181.      0.86392      0.13854E-02  0.41349E-03 -0.88159E-03 
   12183.      0.86767      0.22345E-02  0.40500E-03 -0.87985E-03 
   12185.      0.87324      0.25407E-02 -0.11089E-03  0.24207E-03 
   12187.      0.87829      0.21888E-02 -0.22622E-03  0.49266E-03 
   12189.      0.88238      0.15275E-02 -0.40421E-03  0.89465E-03 
   12191.      0.88471      0.43682E-03 -0.63407E-03  0.13967E-02 
   12193.      0.88423     -0.89188E-03 -0.64267E-03  0.13688E-02 
   12196.      0.88105     -0.19518E-02 -0.38462E-03  0.81803E-03 
   12198.      0.87617     -0.21790E-02  0.16492E-03 -0.34819E-03 
   12200.      0.87209     -0.14032E-02  0.58924E-03 -0.12476E-02 
   12202.      0.87043     -0.27701E-03  0.49839E-03 -0.10843E-02 
   12204.      0.87093      0.64368E-03  0.38371E-03 -0.83763E-03 
   12206.      0.87312      0.15030E-02  0.43868E-03 -0.95810E-03 
   12208.      0.87721      0.22557E-02  0.28165E-03 -0.61514E-03 
   12210.      0.88255      0.25238E-02 -0.25158E-04  0.55000E-04 
   12212.      0.88777      0.23416E-02 -0.14904E-03  0.32597E-03 
   12214.      0.89234      0.22250E-02  0.37572E-04 -0.81981E-04 
   12216.      0.89706      0.20870E-02 -0.17183E-03  0.36561E-03 
   12218.      0.90096      0.19472E-02  0.36501E-04 -0.77032E-04 
   12220.      0.90507      0.20368E-02  0.50291E-04 -0.10790E-03 
   12223.      0.90940      0.18122E-02 -0.26834E-03  0.57072E-03 
   12225.      0.91255      0.10413E-02 -0.48178E-03  0.10138E-02 
   12227.      0.91367      0.20629E-03 -0.32897E-03  0.70610E-03 
   12229.      0.91339     -0.59915E-03 -0.44838E-03  0.96286E-03 
   12231.      0.91121     -0.14738E-02 -0.39654E-03  0.84788E-03 
   12233.      0.90728     -0.22086E-02 -0.31066E-03  0.67914E-03 
   12235.      0.90196     -0.33221E-02 -0.75006E-03  0.16586E-02 
   12237.      0.89330     -0.38786E-02  0.22103E-03 -0.48784E-03 
   12239.      0.88566     -0.35862E-02  0.40774E-04 -0.16286E-03 
   12243.      0.87222     -0.30144E-02  0.29751E-03 -0.17385E-02 
   12246.      0.86455     -0.20511E-02  0.29833E-03 -0.13679E-02 
   12249.      0.85976     -0.81000E-03  0.52544E-03 -0.23716E-02 
   12252.      0.85970      0.41199E-03  0.28633E-03 -0.13074E-02 
   12255.      0.86226      0.99975E-03  0.10037E-03 -0.47928E-03 
   12258.      0.86590      0.13677E-02  0.13757E-03 -0.65842E-03 
   12261.      0.87070      0.14847E-02 -0.63191E-04  0.29113E-03 
   12264.      0.87491      0.10636E-02 -0.21424E-03  0.98733E-03 
   12267.      0.87715      0.58912E-03 -0.97275E-04  0.45775E-03 
   12270.      0.87852      0.26242E-03 -0.11564E-03  0.54471E-03 
   12273.      0.87878     -0.54216E-03 -0.41264E-03  0.19061E-02 
   12277.      0.87522     -0.13725E-02 -0.13375E-03  0.61743E-03 
   12280.      0.87044     -0.14485E-02  0.83707E-04 -0.38654E-03 
   12283.      0.86642     -0.90664E-03  0.27167E-03 -0.12657E-02 
   12286.      0.86491      0.92007E-04  0.37990E-03 -0.17955E-02 
   12289.      0.86700      0.14135E-02  0.48053E-03 -0.22637E-02 
   12292.      0.87356      0.21254E-02 -0.16740E-04  0.78091E-04 
   12295.      0.87998      0.17669E-02 -0.21401E-03  0.10356E-02 
   12298.      0.88452      0.11408E-02 -0.19042E-03  0.90189E-03 
   12301.      0.88706      0.55797E-03 -0.19345E-03  0.86764E-03 
   12304.      0.88786      0.61767E-04 -0.13644E-03  0.62503E-03 
   12307.      0.88742      0.13427E-03  0.18015E-03 -0.86405E-03 
   12310.      0.88872      0.58265E-03  0.10959E-03 -0.52342E-03 
   12313.      0.89101      0.78169E-03  0.19431E-04 -0.90586E-04 
   12316.      0.89349      0.34739E-03 -0.30315E-03  0.14202E-02 
   12319.      0.89314     -0.36289E-03 -0.16099E-03  0.75372E-03 
   12322.      0.89127     -0.10228E-02 -0.26833E-03  0.12747E-02 
   12326.      0.88681     -0.19979E-02 -0.36632E-03  0.17215E-02 
   12329.      0.87906     -0.28638E-02 -0.19749E-03  0.93798E-03 
   12332.      0.86913     -0.32209E-02 -0.33978E-04  0.16367E-03 
   12335.      0.85907     -0.30053E-02  0.17226E-03 -0.83638E-03 
   12338.      0.85042     -0.24052E-02  0.21371E-03 -0.10292E-02 
   12341.      0.84410     -0.13392E-02  0.47975E-03 -0.22475E-02 
   12344.      0.84224     -0.89822E-04  0.33314E-03 -0.15930E-02 
   12347.      0.84356      0.73494E-03  0.19820E-03 -0.96743E-03 
   12350.      0.84684      0.13033E-02  0.16609E-03 -0.80578E-03 
   12353.      0.85167      0.17983E-02  0.15291E-03 -0.73070E-03 
   12356.      0.85796      0.18600E-02 -0.11405E-03  0.53479E-03 
   12360.      0.86307      0.15305E-02 -0.10114E-03  0.47424E-03 
   12363.      0.86732      0.10851E-02 -0.18700E-03  0.90315E-03 
   12366.      0.86981      0.60887E-03 -0.12036E-03  0.57225E-03 
   12369.      0.87110      0.54967E-03  0.82446E-04 -0.38749E-03 
   12372.      0.87318      0.67484E-03 -0.79112E-06  0.37769E-05 
   12375.      0.87527      0.61139E-03 -0.40150E-04  0.19292E-03 
   12378.      0.87697      0.41294E-03 -0.88096E-04  0.42124E-03 
   12381.      0.87782      0.81138E-04 -0.12669E-03  0.60385E-03 
   12384.      0.87747     -0.37035E-03 -0.16526E-03  0.79254E-03 
