# Sample Au300K                                  
# R window limits:    1.200        3.500    
# Weight:         2
# R shell:        1.970
# K points:       435
# 
#   K        k*chi(k)      k^n*chi(k)    Amplitude    Amp*R^2,     Phase         Phase+2kr
   3.51598 -0.319604E-01 -0.112372      0.668214       2.5933      -13.901     -0.47848E-01 
   3.55322  0.658368E-01  0.233933      0.527218       2.0461      -13.874      0.12520     
   3.59073  0.128769      0.462375      0.434263       1.6853      -13.846      0.30105     
   3.62666  0.168683      0.611755      0.372000       1.4437      -13.818      0.47063     
   3.66238  0.194978      0.714084      0.326433       1.2669      -13.790      0.64013     
   3.69821  0.211452      0.781994      0.291687       1.1320      -13.760      0.81093     
   3.73493  0.220257      0.822646      0.264048       1.0247      -13.729      0.98660     
   3.77077  0.222377      0.838532      0.242705      0.94191      -13.698       1.1586     
   3.80776  0.218884      0.833456      0.225029      0.87331      -13.666       1.3366     
   3.84125  0.211403      0.812051      0.211964      0.82261      -13.636       1.4980     
   3.87570  0.199951      0.774951      0.200832      0.77941      -13.606       1.6645     
   3.90978  0.185321      0.724564      0.191695      0.74395      -13.575       1.8294     
   3.94270  0.168457      0.664177      0.184338      0.71540      -13.545       1.9889     
   3.97684  0.148523      0.590654      0.177997      0.69079      -13.514       2.1545     
   4.00918  0.127688      0.511922      0.173031      0.67152      -13.485       2.3116     
   4.04226  0.104758      0.423461      0.168868      0.65536      -13.454       2.4724     
   4.07589  0.801547E-01  0.326701      0.165485      0.64223      -13.423       2.6360     
   4.10869  0.552466E-01  0.226991      0.162929      0.63231      -13.393       2.7956     
   4.14117  0.300607E-01  0.124486      0.161066      0.62508      -13.362       2.9539     
   4.17460  0.397285E-02  0.165851E-01  0.159801      0.62017      -13.331       3.1167     
   4.20669 -0.208886E-01 -0.878721E-01  0.159179      0.61776      -13.301       3.2732     
   4.23864 -0.451034E-01 -0.191177      0.159123      0.61754      -13.271       3.4290     
   4.27026 -0.682152E-01 -0.291296      0.159615      0.61945      -13.242       3.5832     
   4.30243 -0.905309E-01 -0.389503      0.160677      0.62357      -13.211       3.7401     
   4.33361 -0.110593     -0.479269      0.162137      0.62924      -13.182       3.8922     
   4.36361 -0.127685     -0.557168      0.163402      0.63415      -13.154       4.0385     
   4.39468 -0.142563     -0.626518      0.164496      0.63839      -13.125       4.1901     
   4.42409 -0.153597     -0.679529      0.165327      0.64162      -13.097       4.3334     
   4.45424 -0.161528     -0.719487      0.165975      0.64413      -13.069       4.4804     
   4.48343 -0.165735     -0.743060      0.166405      0.64580      -13.042       4.6226     
   4.51281 -0.166407     -0.750964      0.166644      0.64673      -13.015       4.7657     
   4.54188 -0.163539     -0.742773      0.166690      0.64691      -12.988       4.9072     
   4.57094 -0.157232     -0.718698      0.166550      0.64636      -12.961       5.0485     
   4.60007 -0.147621     -0.679066      0.166225      0.64510      -12.934       5.1900     
   4.62845 -0.135325     -0.626345      0.165733      0.64319      -12.908       5.3278     
   4.65669 -0.120517     -0.561210      0.165075      0.64064      -12.883       5.4648     
   4.68529 -0.103262     -0.483811      0.164242      0.63741      -12.857       5.6033     
   4.71344 -0.844623E-01 -0.398108      0.163262      0.63360      -12.832       5.7394     
   4.74137 -0.644594E-01 -0.305626      0.162137      0.62924      -12.807       5.8743     
   4.76918 -0.436397E-01 -0.208126      0.160869      0.62432      -12.782       6.0085     
   4.79697 -0.223996E-01 -0.107450      0.159460      0.61885      -12.758       6.1422     
   4.82455 -0.133510E-02 -0.644127E-02  0.157926      0.61290      -12.734       6.2747     
   4.85189  0.191121E-01  0.927297E-01  0.156278      0.60650      -12.711       6.4058     
   4.87997  0.392385E-01  0.191483      0.154459      0.59944      -12.687       6.5400     
   4.90767  0.578487E-01  0.283902      0.152544      0.59201      -12.664       6.6721     
   4.93457  0.744142E-01  0.367202      0.150576      0.58437      -12.642       6.8001     
   4.96123  0.890891E-01  0.441991      0.148527      0.57642      -12.621       6.9265     
   4.98798  0.101862      0.508085      0.146377      0.56807      -12.600       7.0528     
   5.01670  0.113210      0.567939      0.143971      0.55874      -12.578       7.1880     
   5.04248  0.121192      0.611106      0.141733      0.55005      -12.558       7.3089     
   5.06800  0.126986      0.643566      0.139450      0.54119      -12.540       7.4280     
   5.09478  0.130805      0.666425      0.136988      0.53164      -12.521       7.5524     
   5.12075  0.132333      0.677644      0.134544      0.52215      -12.503       7.6724     
   5.14659  0.131803      0.678337      0.132063      0.51252      -12.486       7.7912     
   5.17228  0.129363      0.669100      0.129556      0.50279      -12.470       7.9086     
   5.19752  0.125246      0.650968      0.127060      0.49311      -12.455       8.0232     
   5.22321  0.119471      0.624021      0.124493      0.48315      -12.440       8.1390     
   5.24845  0.112423      0.590045      0.121954      0.47329      -12.427       8.2520     
   5.29864  0.951363E-01  0.504093      0.116881      0.45360      -12.403       8.4738     
   5.34738  0.754524E-01  0.403472      0.111978      0.43458      -12.383       8.6854     
   5.39764  0.536988E-01  0.289847      0.107014      0.41531      -12.368       8.8991     
   5.44501  0.331122E-01  0.180297      0.102489      0.39775      -12.358       9.0958     
   5.49296  0.132063E-01  0.725418E-01  0.981319E-01  0.38084      -12.352       9.2898     
   5.54036 -0.484512E-02 -0.268438E-01  0.941154E-01  0.36525      -12.353       9.4763     
   5.58746 -0.207458E-01 -0.115916      0.904875E-01  0.35117      -12.359       9.6561     
   5.63475 -0.345055E-01 -0.194430      0.872841E-01  0.33874      -12.370       9.8312     
   5.68174 -0.460363E-01 -0.261566      0.846096E-01  0.32836      -12.386       10.000     
   5.72738 -0.553733E-01 -0.317144      0.825598E-01  0.32041      -12.406       10.160     
   5.77286 -0.630901E-01 -0.364210      0.811051E-01  0.31476      -12.429       10.316     
   5.81842 -0.694600E-01 -0.404148      0.802725E-01  0.31153      -12.454       10.471     
   5.86367 -0.746032E-01 -0.437448      0.800822E-01  0.31079      -12.479       10.624     
   5.90812 -0.785597E-01 -0.464140      0.805119E-01  0.31246      -12.503       10.775     
   5.95236 -0.813412E-01 -0.484172      0.815274E-01  0.31640      -12.524       10.928     
   5.99579 -0.827541E-01 -0.496176      0.830624E-01  0.32236      -12.542       11.082     
   6.03931 -0.825585E-01 -0.498597      0.850924E-01  0.33024      -12.555       11.240     
   6.08369 -0.803089E-01 -0.488575      0.876170E-01  0.34003      -12.563       11.407     
   6.12619 -0.758217E-01 -0.464498      0.904125E-01  0.35088      -12.566       11.572     
   6.17016 -0.683977E-01 -0.422025      0.936398E-01  0.36341      -12.563       11.747     
   6.21382 -0.579365E-01 -0.360007      0.971287E-01  0.37695      -12.555       11.927     
   6.25627 -0.446734E-01 -0.279489      0.100746      0.39099      -12.543       12.107     
   6.29850 -0.285039E-01 -0.179532      0.104523      0.40564      -12.526       12.290     
   6.33993 -0.100036E-01 -0.634223E-01  0.108366      0.42056      -12.505       12.474     
   6.38193  0.109488E-01  0.698743E-01  0.112368      0.43609      -12.481       12.664     
   6.42386  0.333791E-01  0.214423      0.116443      0.45190      -12.453       12.857     
   6.46609  0.565854E-01  0.365887      0.120599      0.46803      -12.422       13.055     
   6.50698  0.786209E-01  0.511584      0.124652      0.48376      -12.389       13.249     
   6.54783  0.991079E-01  0.648941      0.128712      0.49952      -12.353       13.445     
   6.58869  0.116931      0.770425      0.132766      0.51525      -12.316       13.644     
   6.62927  0.130897      0.867749      0.136771      0.53080      -12.276       13.843     
   6.66967  0.140103      0.934438      0.140725      0.54614      -12.235       14.043     
   6.70957  0.143789      0.964761      0.144586      0.56112      -12.193       14.242     
   6.74867  0.141623      0.955766      0.148318      0.57561      -12.151       14.439     
   6.78758  0.133482      0.906021      0.151972      0.58979      -12.107       14.636     
   6.82675  0.119228      0.813937      0.155582      0.60380      -12.063       14.835     
   6.86593  0.991582E-01  0.680814      0.159118      0.61752      -12.017       15.035     
   6.90478  0.740868E-01  0.511552      0.162543      0.63081      -11.970       15.235     
   6.94361  0.447161E-01  0.310491      0.165881      0.64377      -11.923       15.435     
   6.98268  0.119354E-01  0.833413E-01  0.169148      0.65645      -11.874       15.637     
   7.02143 -0.224728E-01 -0.157791      0.172293      0.66865      -11.826       15.839     
   7.05901 -0.562452E-01 -0.397036      0.175247      0.68011      -11.778       16.035     
   7.09694 -0.892948E-01 -0.633720      0.178130      0.69130      -11.729       16.233     
   7.13396 -0.119132     -0.849883      0.180844      0.70184      -11.681       16.427     
   7.17148 -0.145583      -1.04404      0.183493      0.71212      -11.631       16.624     
   7.20900 -0.166967      -1.20367      0.186036      0.72199      -11.581       16.822     
   7.24633 -0.182143      -1.31987      0.188460      0.73139      -11.531       17.019     
   7.28466 -0.190526      -1.38792      0.190834      0.74061      -11.480       17.222     
   7.32208 -0.191111      -1.39933      0.193041      0.74917      -11.429       17.420     
   7.35959 -0.183923      -1.35360      0.195140      0.75732      -11.377       17.619     
   7.39660 -0.169297      -1.25222      0.197100      0.76493      -11.326       17.816     
   7.43249 -0.148365      -1.10272      0.198895      0.77189      -11.276       18.008     
   7.46784 -0.121906     -0.910375      0.200559      0.77835      -11.227       18.196     
   7.50401 -0.897628E-01 -0.673580      0.202156      0.78455      -11.176       18.389     
   7.53965 -0.541909E-01 -0.408581      0.203626      0.79025      -11.126       18.580     
   7.57488 -0.165061E-01 -0.125032      0.204977      0.79549      -11.076       18.769     
   7.61018  0.223755E-01  0.170282      0.206229      0.80036      -11.026       18.958     
   7.64419  0.595674E-01  0.455345      0.207342      0.80467      -10.977       19.141     
   7.67985  0.968179E-01  0.743547      0.208409      0.80881      -10.926       19.333     
   7.71422  0.129697       1.00051      0.209343      0.81244      -10.876       19.518     
   7.74891  0.158622       1.22915      0.210192      0.81573      -10.826       19.705     
   7.78283  0.181706       1.41419      0.210933      0.81861      -10.777       19.888     
   7.81700  0.198897       1.55478      0.211591      0.82116      -10.727       20.072     
   7.85137  0.209377       1.64390      0.212166      0.82340      -10.676       20.258     
   7.88496  0.212605       1.67638      0.212646      0.82526      -10.627       20.440     
   7.91939  0.208550       1.65159      0.213053      0.82684      -10.576       20.626     
   7.95358  0.197239       1.56876      0.213377      0.82810      -10.525       20.812     
   7.98819  0.178773       1.42807      0.213624      0.82905      -10.474       21.000     
   8.02179  0.154681       1.24082      0.213789      0.82969      -10.424       21.182     
   8.05534  0.125386       1.01002      0.213882      0.83005      -10.373       21.365     
   8.08818  0.925778E-01  0.748786      0.213905      0.83014      -10.324       21.544     
   8.12281  0.547412E-01  0.444652      0.213860      0.82997      -10.272       21.732     
   8.15628  0.162815E-01  0.132796      0.213750      0.82954      -10.221       21.915     
   8.18963 -0.225716E-01 -0.184853      0.213579      0.82888      -10.170       22.097     
   8.22291 -0.605567E-01 -0.497952      0.213349      0.82799      -10.119       22.279     
   8.25594 -0.962180E-01 -0.794370      0.213065      0.82689      -10.069       22.460     
   8.28889 -0.128574      -1.06573      0.212729      0.82558      -10.018       22.640     
   8.32202 -0.156789      -1.30480      0.212340      0.82407      -9.9669       22.822     
   8.35439 -0.179267      -1.49767      0.211912      0.82241      -9.9168       22.999     
   8.38689 -0.196048      -1.64423      0.211439      0.82057      -9.8663       23.178     
   8.41962 -0.206550      -1.73907      0.210920      0.81856      -9.8153       23.358     
   8.45202 -0.210298      -1.77745      0.210367      0.81641      -9.7646       23.536     
   8.48443 -0.207327      -1.75905      0.209777      0.81412      -9.7137       23.715     
   8.51711 -0.197642      -1.68334      0.209147      0.81168      -9.6622       23.895     
   8.54911 -0.181973      -1.55571      0.208498      0.80916      -9.6116       24.072     
   8.58047 -0.161179      -1.38300      0.207835      0.80659      -9.5619       24.245     
   8.61220 -0.135340      -1.16557      0.207138      0.80388      -9.5114       24.421     
   8.64310 -0.106294     -0.918706      0.206435      0.80115      -9.4620       24.592     
   8.67469 -0.735802E-01 -0.638285      0.205696      0.79829      -9.4113       24.767     
   8.70622 -0.388792E-01 -0.338491      0.204939      0.79535      -9.3606       24.942     
   8.73768 -0.329138E-02 -0.287590E-01  0.204167      0.79235      -9.3098       25.117     
   8.76899  0.320026E-01  0.280631      0.203383      0.78931      -9.2591       25.291     
   8.80023  0.660039E-01  0.580850      0.202588      0.78622      -9.2083       25.465     
   8.83136  0.976743E-01  0.862596      0.201786      0.78311      -9.1575       25.638     
   8.86239  0.126114       1.11767      0.200978      0.77997      -9.1067       25.811     
   8.89322  0.150446       1.33795      0.200168      0.77683      -9.0561       25.983     
   8.92327  0.169723       1.51449      0.199374      0.77375      -9.0065       26.151     
   8.95365  0.184223       1.64946      0.198569      0.77063      -8.9563       26.321     
   8.98399  0.193314       1.73673      0.197764      0.76750      -8.9059       26.491     
   9.01390  0.196773       1.77369      0.196972      0.76443      -8.8561       26.659     
   9.04373  0.194715       1.76095      0.196183      0.76137      -8.8063       26.826     
   9.07403  0.187081       1.69758      0.195386      0.75827      -8.7555       26.996     
   9.10367  0.174447       1.58811      0.194612      0.75527      -8.7057       27.163     
   9.13365  0.156862       1.43272      0.193836      0.75226      -8.6551       27.331     
   9.16376  0.134856       1.23579      0.193064      0.74926      -8.6042       27.501     
   9.19388  0.109134       1.00337      0.192303      0.74631      -8.5530       27.671     
   9.22373  0.807285E-01  0.744618      0.191559      0.74342      -8.5022       27.839     
   9.27782  0.245507E-01  0.227777      0.190243      0.73831      -8.4097       28.145     
   9.32107 -0.217732E-01 -0.202950      0.189225      0.73436      -8.3354       28.390     
   9.36310 -0.651625E-01 -0.610124      0.188268      0.73065      -8.2629       28.628     
   9.40529 -0.104655     -0.984310      0.187342      0.72706      -8.1898       28.867     
   9.44743 -0.137847      -1.30230      0.186455      0.72361      -8.1165       29.106     
   9.49115 -0.163724      -1.55393      0.185578      0.72021      -8.0402       29.355     
   9.53301 -0.178945      -1.70588      0.184780      0.71711      -7.9669       29.593     
   9.57473 -0.184010      -1.76184      0.184029      0.71420      -7.8936       29.831     
   9.61623 -0.178813      -1.71951      0.183326      0.71147      -7.8205       30.067     
   9.65846 -0.163399      -1.57818      0.182658      0.70888      -7.7459       30.308     
   9.69965 -0.139404      -1.35217      0.182053      0.70653      -7.6729       30.544     
   9.74070 -0.108023      -1.05222      0.181496      0.70437      -7.5999       30.778     
   9.78152 -0.711474E-01 -0.695930      0.180990      0.70240      -7.5273       31.012     
   9.82224 -0.306989E-01 -0.301532      0.180531      0.70062      -7.4546       31.245     
   9.86308  0.113435E-01  0.111882      0.180118      0.69902      -7.3816       31.479     
   9.90405  0.527460E-01  0.522399      0.179750      0.69759      -7.3082       31.714     
   9.94442  0.905973E-01  0.900938      0.179434      0.69636      -7.2358       31.945     
   9.98467  0.123443       1.23254      0.179162      0.69531      -7.1636       32.176     
  10.02621  0.150412       1.50807      0.178928      0.69440      -7.0889       32.414     
  10.06528  0.168029       1.69126      0.178750      0.69371      -7.0186       32.639     
  10.10430  0.177239       1.79087      0.178611      0.69317      -6.9483       32.863     
  10.14390  0.177557       1.80112      0.178510      0.69278      -6.8769       33.090     
  10.18444  0.168456       1.71563      0.178446      0.69253      -6.8038       33.323     
  10.22356  0.151081       1.54458      0.178422      0.69244      -6.7332       33.548     
  10.26283  0.126029       1.29342      0.178434      0.69248      -6.6623       33.773     
  10.30184  0.948209E-01  0.976830      0.178480      0.69266      -6.5918       33.997     
  10.34079  0.589272E-01  0.609354      0.178559      0.69297      -6.5215       34.221     
  10.38008  0.197098E-01  0.204589      0.178672      0.69341      -6.4505       34.447     
  10.41831 -0.194850E-01 -0.203001      0.178812      0.69395      -6.3814       34.667     
  10.45773 -0.589600E-01 -0.616587      0.178987      0.69463      -6.3102       34.893     
  10.49622 -0.947046E-01 -0.994040      0.179187      0.69541      -6.2407       35.114     
  10.53565 -0.126623      -1.33405      0.179421      0.69631      -6.1695       35.341     
  10.57355 -0.151306      -1.59984      0.179673      0.69729      -6.1010       35.559     
  10.61163 -0.168993      -1.79329      0.179952      0.69838      -6.0323       35.778     
  10.65003 -0.178735      -1.90353      0.180260      0.69957      -5.9630       35.998     
  10.68863 -0.179839      -1.92223      0.180595      0.70087      -5.8933       36.220     
  10.72652 -0.172370      -1.84893      0.180949      0.70225      -5.8250       36.437     
  10.76427 -0.156820      -1.68805      0.181327      0.70371      -5.7570       36.654     
  10.80119 -0.134445      -1.45217      0.181719      0.70523      -5.6904       36.866     
  10.83868 -0.105482      -1.14328      0.182141      0.70687      -5.6229       37.081     
  10.87645 -0.712539E-01 -0.774989      0.182590      0.70861      -5.5550       37.298     
  10.91310 -0.346776E-01 -0.378440      0.183049      0.71039      -5.4891       37.509     
  10.95019  0.405490E-02  0.444019E-01  0.183536      0.71228      -5.4225       37.721     
  10.98717  0.426987E-01  0.469137      0.184044      0.71426      -5.3562       37.933     
  11.02424  0.797214E-01  0.878868      0.184577      0.71632      -5.2898       38.146     
  11.06079  0.112925       1.24903      0.185124      0.71845      -5.2244       38.355     
  11.09750  0.141484       1.57012      0.185696      0.72067      -5.1588       38.565     
